Data from Absorbance__1__13-04-29-549.txt Node

Date: Sat Aug 24 13:04:29 CDT 2024
User: jcb200005
Spectrometer: USB4H00496
Trigger mode: 4
Integration Time (sec): 5.700000E-2
Scans to average: 25
Electric dark correction enabled: true
Nonlinearity correction enabled: false
Boxcar width: 0
XAxis mode: Wavelengths
Number of Pixels in Spectrum: 3648
>>>>>Begin Spectral Data<<<<<
177.67838	0.67749
177.89545	0.67749
178.1125	0.67749
178.32955	0.21524
178.54659	-0.04613
178.76362	-0
178.98064	-0
179.19766	0.18608
179.41466	-0.22595
179.63165	-0.03009
179.84864	-0
180.06561	-0.20927
180.28258	-0.22519
180.49954	-0
180.71649	-0
180.93343	-0
181.15036	-0.24414
181.36728	-0
181.5842	-0
181.8011	0.46875
182.01799	0.85001
182.23488	0.89142
182.45176	0.47354
182.66862	0.88531
182.88548	0.36463
183.10233	1.27521
183.31917	-0
183.53601	0.61331
183.75283	-0
183.96964	0.54853
184.18645	-0
184.40324	0.91667
184.62003	0.59067
184.83681	1.1158
185.05357	1.08611
185.27033	0.76634
185.48708	-0
185.70382	0.87963
185.92056	-0
186.13728	0.55823
186.35399	0.80773
186.5707	0.592
186.78739	0.88528
187.00408	0.6871
187.22076	0.99962
187.43742	-0
187.65408	1.61161
187.87073	0.37845
188.08737	0.91275
188.30401	-0
188.52063	0.92109
188.73724	0.85046
188.95385	0.91307
189.17044	0.52095
189.38703	1.19972
189.6036	-0
189.82017	-0
190.03673	0.66654
190.25328	1.16991
190.46982	1.06509
190.68635	0.91947
190.90287	0.76603
191.11939	1.0907
191.33589	0.71613
191.55239	0.81386
191.76887	-0
191.98535	-0
192.20182	1.07395
192.41827	-0
192.63472	0.99813
192.85116	0.88245
193.06759	1.37324
193.28401	1.22181
193.50043	0.96821
193.71683	1.36441
193.93322	-0
194.14961	1.63209
194.36598	1.19509
194.58235	0.87662
194.79871	1.49467
195.01506	1.42348
195.23139	1.50917
195.44772	1.07927
195.66404	1.00348
195.88036	0.90343
196.09666	0.97009
196.31295	1.40107
196.52923	1.30508
196.74551	0.89665
196.96177	1.2462
197.17803	2.29492
197.39428	1.27763
197.61051	0.9882
197.82674	1.43632
198.04296	1.06356
198.25917	0.98465
198.47537	1.15175
198.69156	2.96389
198.90775	2.61087
199.12392	1.23705
199.34008	1.57814
199.55624	1.2696
199.77238	-0
199.98852	1.06736
200.20465	-0
200.42076	2.43828
200.63687	2.37544
200.85297	1.70483
201.06906	1.36181
201.28514	1.38931
201.50121	-0
201.71727	1.63814
201.93333	2.37277
202.14937	-0
202.3654	2.29927
202.58143	0.90455
202.79744	1.92617
203.01345	1.2132
203.22945	-0
203.44544	1.58815
203.66141	1.21184
203.87738	-0
204.09334	1.655
204.30929	1.89915
204.52523	1.08802
204.74117	1.56223
204.95709	1.68629
205.173	1.49584
205.38891	-0
205.6048	1.67193
205.82069	1.41007
206.03656	1.93064
206.25243	-0
206.46829	1.69068
206.68413	1.68014
206.89997	2.03034
207.1158	1.263
207.33162	1.89058
207.54743	2.23953
207.76324	1.80656
207.97903	-0
208.19481	1.5773
208.41058	2.03081
208.62635	-0
208.8421	1.98856
209.05785	1.90943
209.27358	1.42171
209.48931	1.52048
209.70503	1.79349
209.92074	-0
210.13643	2.63332
210.35212	1.97703
210.5678	1.59893
210.78347	1.42248
210.99914	2.08765
211.21479	1.86761
211.43043	1.67971
211.64606	2.90558
211.86169	1.76487
212.0773	1.74839
212.29291	3.14011
212.5085	1.8569
212.72409	1.95871
212.93966	2.98037
213.15523	1.64211
213.37079	2.19447
213.58634	-0
213.80188	1.91459
214.01741	2.13868
214.23293	1.39805
214.44844	2.19373
214.66394	1.56026
214.87943	1.74469
215.09491	2.16157
215.31039	1.55114
215.52585	-0
215.7413	-0
215.95675	-0
216.17218	1.62129
216.38761	2.62826
216.60303	2.29871
216.81843	1.77965
217.03383	2.41984
217.24922	1.74715
217.4646	1.87448
217.67997	1.65108
217.89533	1.91347
218.11068	2.08541
218.32602	1.67076
218.54135	2.05674
218.75667	2.90308
218.97198	-0
219.18729	2.35972
219.40258	2.05403
219.61787	2.33769
219.83314	2.80664
220.04841	2.20622
220.26366	2.49792
220.47891	2.0358
220.69414	-0
220.90937	1.8893
221.12459	1.93431
221.3398	1.95381
221.555	1.98789
221.77019	1.99958
221.98536	2.0582
222.20054	3.04535
222.4157	2.29012
222.63085	2.03719
222.84599	2.07887
223.06112	2.25102
223.27624	2.36753
223.49136	2.65739
223.70646	2.32957
223.92155	2.3592
224.13664	2.53823
224.35171	1.91688
224.56678	1.95225
224.78184	3.05116
224.99688	2.28621
225.21192	1.91102
225.42695	2.05419
225.64196	2.12837
225.85697	2.91181
226.07197	2.61209
226.28696	2.16287
226.50194	2.32832
226.71691	-0
226.93187	2.71693
227.14682	2.29493
227.36176	3.04292
227.5767	2.76539
227.79162	3.07143
228.00653	3.42826
228.22143	2.56369
228.43633	2.09165
228.65121	2.11591
228.86609	3.0844
229.08095	2.85865
229.29581	2.35952
229.51065	2.83404
229.72549	2.21521
229.94031	-0
230.15513	2.58382
230.36994	2.19287
230.58474	2.26369
230.79952	2.19956
231.0143	2.80459
231.22907	3.78159
231.44383	-0
231.65858	-0
231.87332	2.98123
232.08805	2.50065
232.30277	2.63022
232.51748	2.66753
232.73218	2.42963
232.94688	2.61672
233.16156	2.85264
233.37623	2.75388
233.59089	2.99027
233.80555	2.50977
234.02019	3.01999
234.23483	2.31911
234.44945	2.95351
234.66406	2.21666
234.87867	2.64724
235.09327	2.23782
235.30785	2.74317
235.52243	2.88973
235.73699	2.40202
235.95155	2.93161
236.1661	2.57316
236.38064	2.4469
236.59516	2.23836
236.80968	2.27367
237.02419	2.35258
237.23869	2.68338
237.45318	2.63001
237.66766	2.25742
237.88213	3.42503
238.09659	2.46268
238.31104	2.39384
238.52548	2.22648
238.73991	2.32823
238.95433	2.42185
239.16874	-0
239.38314	-0
239.59754	2.94499
239.81192	3.20718
240.02629	2.54866
240.24066	3.62061
240.45501	-0
240.66935	-0
240.88369	2.32542
241.09801	2.36043
241.31232	3.37069
241.52663	2.36639
241.74092	-0
241.95521	2.64138
242.16949	2.66911
242.38375	3.10227
242.59801	-0
242.81225	2.92258
243.02649	-0
243.24072	2.85258
243.45493	2.45658
243.66914	2.69457
243.88334	2.91619
244.09753	2.87871
244.31171	2.65186
244.52587	3.24407
244.74003	3.34665
244.95418	2.55994
245.16832	2.75852
245.38245	2.517
245.59657	2.80839
245.81068	3.09294
246.02478	-0
246.23887	2.44558
246.45295	-0
246.66702	3.50785
246.88108	2.52859
247.09513	2.94259
247.30917	2.6198
247.5232	2.84694
247.73722	2.61906
247.95124	2.64108
248.16524	2.59814
248.37923	2.5587
248.59321	2.95013
248.80719	2.73456
249.02115	2.96302
249.2351	3.65399
249.44904	3.38669
249.66298	-0
249.8769	2.55106
250.09081	-0
250.30472	2.89904
250.51861	2.46985
250.7325	-0
250.94637	2.54682
251.16024	2.89887
251.37409	2.47107
251.58793	3.23341
251.80177	3.28499
252.01559	2.97608
252.22941	2.33461
252.44322	3.27836
252.65701	-0
252.8708	-0
253.08457	2.72282
253.29834	-0
253.51209	2.62624
253.72584	2.67147
253.93958	2.64365
254.1533	-0
254.36702	-0
254.58073	-0
254.79442	3.05173
255.00811	3.04559
255.22179	2.78486
255.43545	3.11881
255.64911	2.81779
255.86276	3.02641
256.0764	2.70852
256.29002	-0
256.50364	2.92986
256.71725	2.65547
256.93085	2.50563
257.14443	3.11273
257.35801	3.82213
257.57158	2.63594
257.78514	2.98747
257.99869	-0
258.21223	2.78618
258.42575	3.30758
258.63927	2.61524
258.85278	2.91014
259.06628	4.52476
259.27977	2.74791
259.49325	3.04513
259.70672	3.55013
259.92017	2.91086
260.13362	3.36874
260.34706	2.8567
260.56049	-0
260.77391	2.4978
260.98732	2.8944
261.20072	2.80314
261.41411	2.78982
261.62749	3.6017
261.84086	-0
262.05422	2.77657
262.26757	-0
262.4809	3.84776
262.69423	3.73324
262.90755	2.83377
263.12086	2.49636
263.33416	2.92495
263.54745	2.7347
263.76073	3.17275
263.974	2.70791
264.18726	2.77021
264.40051	3.35746
264.61375	2.78459
264.82698	2.73592
265.0402	-0
265.25341	2.75969
265.46661	3.11579
265.6798	2.88145
265.89298	2.47196
266.10615	4.27132
266.31931	2.90993
266.53245	3.40109
266.74559	-0
266.95872	3.26925
267.17184	2.69841
267.38495	2.69813
267.59805	3.22516
267.81114	2.66785
268.02422	2.99685
268.23729	2.71681
268.45035	3.37879
268.6634	3.15928
268.87644	3.03489
269.08947	3.32658
269.30248	2.80236
269.51549	3.05029
269.72849	3.26736
269.94148	3.09724
270.15446	3.27568
270.36743	-0
270.58039	2.85752
270.79334	3.00201
271.00627	2.9761
271.2192	2.81578
271.43212	3.11571
271.64503	2.97019
271.85793	3.64492
272.07081	3.31018
272.28369	-0
272.49656	-0
272.70942	3.24643
272.92227	2.64247
273.1351	-0
273.34793	2.63969
273.56075	2.87942
273.77356	2.91337
273.98635	2.75824
274.19914	3.56488
274.41192	3.16058
274.62468	2.75651
274.83744	-0
275.05019	2.85737
275.26292	3.45967
275.47565	2.78698
275.68837	2.76931
275.90107	3.30654
276.11377	2.60313
276.32645	2.90985
276.53913	3.17563
276.7518	2.83298
276.96445	3.36232
277.1771	2.86544
277.38973	-0
277.60236	2.79498
277.81497	2.85116
278.02758	4.5948
278.24017	2.91103
278.45276	-0
278.66533	3.49497
278.87789	2.97503
279.09045	3.73321
279.30299	-0
279.51552	2.94366
279.72805	3.0808
279.94056	2.88594
280.15306	2.90069
280.36556	3.04023
280.57804	2.80426
280.79051	-0
281.00297	2.4244
281.21543	2.7865
281.42787	3.93493
281.6403	4.60218
281.85272	2.8518
282.06513	3.10014
282.27753	-0
282.48992	2.50614
282.70231	3.93847
282.91468	3.26239
283.12704	2.84924
283.33939	-0
283.55173	3.54317
283.76406	3.00856
283.97638	4.21032
284.18868	2.86395
284.40098	3.08447
284.61327	2.39633
284.82555	2.61863
285.03782	-0
285.25008	3.24889
285.46232	3.00669
285.67456	3.51746
285.88679	-0
286.09901	-0
286.31121	-0
286.52341	2.71274
286.7356	2.63254
286.94777	-0
287.15994	-0
287.37209	2.97453
287.58424	2.7724
287.79637	2.70138
288.0085	3.01876
288.22061	2.88705
288.43272	2.98505
288.64481	-0
288.85689	-0
289.06897	2.94318
289.28103	3.87468
289.49308	2.80762
289.70512	4.08893
289.91716	2.72139
290.12918	3.2238
290.34119	3.31233
290.55319	-0
290.76518	2.94725
290.97716	2.67037
291.18913	3.17427
291.40109	3.22598
291.61304	2.91533
291.82498	3.9055
292.03691	2.9555
292.24883	2.75717
292.46074	2.734
292.67264	-0
292.88452	3.04202
293.0964	3.34278
293.30827	3.27551
293.52013	3.9096
293.73197	3.23721
293.94381	2.88498
294.15563	2.8119
294.36745	3.69269
294.57925	2.68695
294.79105	2.7941
295.00283	-0
295.21461	3.14111
295.42637	2.86324
295.63812	3.02665
295.84987	3.43286
296.0616	3.23789
296.27332	-0
296.48503	3.29572
296.69673	-0
296.90843	3.31874
297.12011	2.78396
297.33178	4.4185
297.54344	3.04231
297.75509	2.9146
297.96672	2.75545
298.17835	-0
298.38997	3.25307
298.60158	-0
298.81318	3.39647
299.02476	2.66036
299.23634	3.42349
299.44791	3.15753
299.65946	2.82412
299.87101	2.78483
300.08254	3.00151
300.29407	3.47304
300.50558	-0
300.71709	-0
300.92858	2.98989
301.14006	3.09188
301.35154	3.71358
301.563	2.93788
301.77445	2.59218
301.98589	-0
302.19732	2.62943
302.40874	-0
302.62015	2.66429
302.83155	3.23227
303.04294	3.16933
303.25432	2.86988
303.46569	3.1699
303.67704	3.38347
303.88839	2.62266
304.09973	2.79283
304.31106	2.83083
304.52237	2.83983
304.73368	2.80969
304.94497	2.86868
305.15626	3.14724
305.36753	-0
305.57879	2.94832
305.79005	2.98563
306.00129	2.91409
306.21252	3.44583
306.42374	3.67547
306.63495	3.08742
306.84615	2.43556
307.05734	-0
307.26852	-0
307.47969	-0
307.69085	2.68451
307.902	3.09072
308.11314	2.89405
308.32426	3.83594
308.53538	2.68128
308.74649	2.9491
308.95758	-0
309.16867	-0
309.37974	3.53552
309.59081	2.74159
309.80186	2.66697
310.0129	2.44541
310.22393	2.92282
310.43496	2.92748
310.64597	2.74011
310.85697	3.39278
311.06796	2.70518
311.27894	3.35536
311.48991	4.79025
311.70086	2.89969
311.91181	2.86381
312.12275	2.81924
312.33368	2.52851
312.54459	3.05501
312.7555	2.85194
312.96639	3.33852
313.17728	3.79102
313.38815	-0
313.59902	3.0216
313.80987	3.061
314.02071	3.12571
314.23154	-0
314.44236	2.87029
314.65318	4.10606
314.86398	2.94902
315.07476	3.04184
315.28554	2.66969
315.49631	-0
315.70707	2.87859
315.91782	4.23571
316.12855	-0
316.33928	3.45374
316.54999	3.56333
316.7607	3.41116
316.97139	2.73216
317.18208	2.68737
317.39275	2.75165
317.60341	3.28899
317.81406	3.47318
318.0247	-0
318.23533	2.64799
318.44595	3.35102
318.65656	3.99749
318.86716	2.9249
319.07775	-0
319.28833	2.53728
319.49889	3.26188
319.70945	2.83932
319.91999	2.7125
320.13053	2.59056
320.34105	2.81832
320.55156	2.96453
320.76207	2.91838
320.97256	2.81002
321.18304	4.75914
321.39351	4.60235
321.60397	2.96637
321.81442	2.70279
322.02486	2.98555
322.23529	2.73767
322.4457	3.08867
322.65611	2.90711
322.86651	2.60367
323.07689	2.65724
323.28726	3.38532
323.49763	2.93989
323.70798	3.03339
323.91832	2.69062
324.12866	3.89429
324.33898	3.95151
324.54929	-0
324.75959	2.96379
324.96988	2.73581
325.18015	-0
325.39042	2.58404
325.60068	3.25694
325.81092	2.77646
326.02116	2.86823
326.23138	3.5823
326.4416	-0
326.6518	-0
326.86199	-0
327.07217	2.81046
327.28235	3.27936
327.49251	3.1628
327.70265	2.71906
327.91279	3.40429
328.12292	2.68076
328.33304	2.87732
328.54315	3.21823
328.75324	2.82787
328.96333	2.8707
329.1734	2.70094
329.38346	3.55946
329.59352	3.31079
329.80356	3.48861
330.01359	3.19814
330.22361	2.91502
330.43362	2.86631
330.64362	2.98899
330.85361	3.38597
331.06358	2.4953
331.27355	-0
331.48351	-0
331.69345	-0
331.90338	2.65017
332.11331	2.8736
332.32322	2.96134
332.53312	3.25174
332.74301	2.9843
332.95289	2.71407
333.16276	2.93987
333.37262	3.32289
333.58247	2.77277
333.79231	-0
334.00213	3.00696
334.21195	2.87221
334.42175	2.60519
334.63155	2.75266
334.84133	2.79284
335.0511	2.85081
335.26086	2.52335
335.47061	2.69345
335.68035	2.83876
335.89008	2.64431
336.0998	-0
336.3095	2.93144
336.5192	2.48181
336.72889	3.05474
336.93856	3.26934
337.14822	2.71207
337.35788	2.6687
337.56752	2.39086
337.77715	2.78929
337.98677	2.6204
338.19638	2.71073
338.40598	2.49702
338.61556	-0
338.82514	-0
339.03471	2.8988
339.24426	-0
339.45381	3.17558
339.66334	3.26238
339.87286	2.63617
340.08237	2.37533
340.29187	2.89297
340.50136	2.89363
340.71084	3.36811
340.92031	2.57215
341.12977	2.49408
341.33921	-0
341.54865	-0
341.75807	3.5229
341.96749	2.78535
342.17689	2.68287
342.38628	2.64386
342.59566	2.55684
342.80503	-0
343.01439	3.01073
343.22374	2.9084
343.43307	3.54489
343.6424	2.61882
343.85171	-0
344.06102	2.64128
344.27031	2.50972
344.47959	2.98575
344.68886	2.83613
344.89813	2.82766
345.10737	-0
345.31661	2.41022
345.52584	-0
345.73506	2.75964
345.94426	2.80417
346.15346	3.34887
346.36264	3.02006
346.57181	2.75317
346.78098	2.55865
346.99013	2.4831
347.19927	-0
347.40839	2.52052
347.61751	2.61467
347.82662	2.97268
348.03571	2.70447
348.2448	2.87304
348.45387	3.19354
348.66294	2.73173
348.87199	2.52241
349.08103	2.57462
349.29006	2.55176
349.49908	2.67815
349.70809	2.80518
349.91708	2.6443
350.12607	3.24851
350.33504	2.76049
350.54401	2.46934
350.75296	3.04916
350.9619	-0
351.17083	2.57823
351.37975	-0
351.58866	2.97709
351.79756	3.62079
352.00645	2.69907
352.21532	2.62307
352.42419	2.71881
352.63304	2.59261
352.84188	-0
353.05071	3.28784
353.25954	-0
353.46834	2.49802
353.67714	2.84734
353.88593	2.99084
354.09471	-0
354.30347	2.95136
354.51223	2.65892
354.72097	-0
354.9297	2.73333
355.13842	3.33737
355.34713	-0
355.55583	2.68219
355.76452	2.33125
355.9732	3.08973
356.18186	3.20455
356.39052	-0
356.59916	2.98765
356.80779	2.92769
357.01641	3.00169
357.22502	2.80987
357.43362	2.59613
357.64221	-0
357.85079	2.40002
358.05935	2.82093
358.26791	2.55425
358.47645	2.53421
358.68498	2.67801
358.89351	-0
359.10202	-0
359.31052	2.80452
359.519	2.9631
359.72748	2.40575
359.93595	2.71503
360.1444	2.88956
360.35284	2.86542
360.56128	2.73157
360.7697	3.03751
360.97811	-0
361.18651	2.50725
361.3949	2.45999
361.60327	2.61752
361.81164	2.77539
362.01999	3.12301
362.22834	-0
362.43667	-0
362.64499	2.55229
362.8533	2.34646
363.0616	2.72328
363.26988	2.68613
363.47816	2.77899
363.68643	2.84631
363.89468	2.6661
364.10292	2.55752
364.31115	3.2983
364.51937	3.52628
364.72758	3.35272
364.93578	2.6304
365.14397	-0
365.35214	2.70895
365.56031	2.79164
365.76846	3.41385
365.9766	2.68589
366.18474	2.58831
366.39286	3.14974
366.60096	-0
366.80906	2.66108
367.01715	2.5325
367.22522	2.87622
367.43329	2.69093
367.64134	3.63238
367.84938	2.72186
368.05741	2.64867
368.26543	2.90609
368.47344	3.02545
368.68143	-0
368.88942	2.64739
369.09739	2.63369
369.30535	-0
369.51331	3.07721
369.72125	2.6545
369.92918	2.91845
370.13709	2.79221
370.345	2.61425
370.55289	2.81907
370.76078	3.34934
370.96865	-0
371.17651	3.25088
371.38436	2.54222
371.5922	2.61265
371.80003	3.16982
372.00785	-0
372.21565	-0
372.42344	3.10376
372.63123	2.96671
372.839	2.53042
373.04676	2.81203
373.25451	2.87123
373.46224	2.36389
373.66997	2.68292
373.87769	2.71955
374.08539	2.83636
374.29308	2.81254
374.50076	-0
374.70843	2.91609
374.91609	3.62409
375.12374	4.07476
375.33137	2.58105
375.539	-0
375.74661	2.50396
375.95421	-0
376.1618	-0
376.36938	3.30874
376.57695	2.65153
376.78451	2.47644
376.99205	-0
377.19959	2.8088
377.40711	2.57273
377.61462	3.37625
377.82212	2.67569
378.02961	-0
378.23709	-0
378.44455	2.60146
378.65201	2.74027
378.85945	2.44964
379.06688	2.43024
379.2743	2.64424
379.48171	3.3761
379.68911	3.10715
379.89649	2.62235
380.10387	2.96501
380.31123	-0
380.51859	2.52569
380.72593	3.69639
380.93326	3.23183
381.14057	2.75826
381.34788	3.33801
381.55518	2.71155
381.76246	2.80832
381.96973	-0
382.17699	4.4818
382.38424	2.93177
382.59148	2.67273
382.79871	3.29883
383.00592	4.20122
383.21313	4.35974
383.42032	2.73164
383.6275	2.84286
383.83467	2.90262
384.04183	2.94946
384.24898	2.85767
384.45611	2.79013
384.66324	2.8321
384.87035	3.5206
385.07745	3.71515
385.28454	2.43045
385.49162	2.83057
385.69869	2.60719
385.90575	2.98414
386.11279	3.72701
386.31982	3.20444
386.52684	2.88609
386.73385	3.10487
386.94085	3.24573
387.14784	2.81713
387.35482	-0
387.56178	2.93654
387.76873	2.9512
387.97567	2.54462
388.1826	3.0922
388.38952	-0
388.59643	2.80347
388.80332	3.28258
389.01021	-0
389.21708	2.65421
389.42394	2.66643
389.63079	2.61578
389.83763	2.61316
390.04446	2.62418
390.25127	2.77524
390.45807	2.73077
390.66487	2.50869
390.87165	-0
391.07842	2.98016
391.28517	2.67663
391.49192	2.97183
391.69865	2.55078
391.90538	2.45793
392.11209	2.78024
392.31879	2.74694
392.52548	2.50778
392.73215	-0
392.93882	3.03626
393.14547	3.2634
393.35212	2.81826
393.55875	2.53012
393.76537	2.79686
393.97197	2.77605
394.17857	2.5277
394.38516	2.59636
394.59173	-0
394.79829	2.62826
395.00484	2.41217
395.21138	2.737
395.41791	2.44317
395.62442	-0
395.83093	2.93239
396.03742	2.88112
396.2439	3.05934
396.45037	4.04695
396.65683	2.8042
396.86327	2.55462
397.06971	-0
397.27613	2.77918
397.48254	-0
397.68894	2.53847
397.89533	2.86656
398.10171	3.27734
398.30807	3.79932
398.51442	-0
398.72077	2.54614
398.9271	3.59013
399.13342	2.53201
399.33972	2.57669
399.54602	-0
399.7523	2.74173
399.95857	2.953
400.16484	-0
400.37108	3.56349
400.57732	2.76054
400.78355	-0
400.98976	-0
401.19597	2.90063
401.40216	2.55363
401.60834	-0
401.8145	3.78335
402.02066	-0
402.2268	2.3967
402.43294	2.76912
402.63906	3.44595
402.84517	2.64638
403.05127	2.7112
403.25735	2.61653
403.46343	3.41586
403.66949	2.63016
403.87554	2.39184
404.08158	2.78156
404.28761	3.18406
404.49363	3.1254
404.69963	2.76915
404.90562	3.7039
405.1116	2.71225
405.31757	4.3326
405.52353	2.6477
405.72948	3.47012
405.93541	2.58139
406.14134	-0
406.34725	2.64679
406.55315	3.35267
406.75904	2.74695
406.96491	2.55158
407.17078	3.6364
407.37663	2.66322
407.58247	2.71181
407.7883	3.07608
407.99412	2.74539
408.19992	2.97144
408.40572	3.03552
408.6115	2.48609
408.81727	2.59591
409.02303	2.45274
409.22878	3.34081
409.43452	-0
409.64024	2.83017
409.84595	2.72289
410.05165	2.73286
410.25734	3.03828
410.46302	2.6332
410.66868	2.63159
410.87434	2.68719
411.07998	2.35579
411.28561	2.38482
411.49123	2.58224
411.69684	2.61345
411.90243	2.94296
412.10801	3.02091
412.31359	3.96497
412.51915	2.66869
412.72469	3.26066
412.93023	3.96689
413.13575	2.48508
413.34127	2.79617
413.54677	2.5192
413.75226	2.71451
413.95773	2.45423
414.1632	2.83279
414.36865	2.65539
414.5741	2.51872
414.77953	2.68191
414.98494	-0
415.19035	2.8597
415.39575	2.36261
415.60113	3.84918
415.8065	3.2926
416.01186	-0
416.21721	2.54634
416.42254	2.62973
416.62787	2.75195
416.83318	2.32602
417.03848	2.33407
417.24377	2.75504
417.44905	-0
417.65431	2.50528
417.85956	2.87559
418.06481	3.11274
418.27004	2.54573
418.47525	2.35489
418.68046	2.53584
418.88565	2.48738
419.09084	2.32837
419.29601	2.58422
419.50116	2.32391
419.70631	2.67126
419.91145	2.55389
420.11657	2.50776
420.32168	2.68893
420.52678	2.78824
420.73187	2.4608
420.93694	3.35372
421.14201	2.70911
421.34706	2.47454
421.5521	2.62269
421.75713	2.74004
421.96214	3.16702
422.16715	2.58125
422.37214	2.64304
422.57712	2.76582
422.78209	3.19385
422.98705	2.67818
423.19199	2.87551
423.39692	2.67127
423.60185	2.37771
423.80675	2.58743
424.01165	2.75111
424.21654	2.66852
424.42141	2.75982
424.62627	2.33609
424.83112	2.49284
425.03596	2.71184
425.24079	2.81345
425.4456	2.81569
425.6504	2.57481
425.85519	2.77064
426.05997	2.74121
426.26474	2.8974
426.46949	2.64727
426.67423	2.49061
426.87897	2.30346
427.08368	3.04797
427.28839	2.48001
427.49309	2.71134
427.69777	2.69163
427.90244	2.2626
428.1071	2.84089
428.31175	2.4843
428.51638	2.7219
428.721	2.77809
428.92561	2.52975
429.13021	3.85056
429.3348	2.67758
429.53938	2.96798
429.74394	2.50396
429.94849	2.85583
430.15303	2.53149
430.35756	2.8743
430.56207	4.61162
430.76658	2.82737
430.97107	2.80263
431.17555	2.98249
431.38002	2.60132
431.58447	2.78931
431.78891	2.44649
431.99335	2.78978
432.19777	2.60594
432.40217	2.96831
432.60657	2.24678
432.81095	2.89656
433.01532	2.57834
433.21968	2.34193
433.42403	2.48083
433.62837	-0
433.83269	2.41098
434.037	2.43608
434.2413	2.34443
434.44559	-0
434.64986	2.26022
434.85413	2.61849
435.05838	3.01184
435.26262	2.54351
435.46684	2.33678
435.67106	2.43333
435.87526	2.65374
436.07945	3.02656
436.28363	2.61493
436.4878	2.46661
436.69196	2.38169
436.8961	2.52336
437.10023	2.66083
437.30435	2.75278
437.50846	2.44929
437.71255	2.66924
437.91663	2.62533
438.1207	2.89456
438.32476	3.00379
438.52881	3.24168
438.73284	2.4623
438.93686	2.3741
439.14088	2.38952
439.34487	3.84046
439.54886	2.45636
439.75283	-0
439.95679	2.43779
440.16074	2.7551
440.36468	2.45392
440.56861	3.24801
440.77252	-0
440.97642	2.60287
441.18031	2.47254
441.38419	3.12243
441.58805	2.69376
441.79191	2.50538
441.99575	2.84782
442.19958	2.69728
442.40339	2.49624
442.6072	2.54282
442.81099	2.54746
443.01477	2.17532
443.21854	2.68575
443.42229	2.54921
443.62604	3.09425
443.82977	2.43721
444.03349	2.71777
444.2372	3.00453
444.44089	2.62785
444.64458	2.38438
444.84825	2.84278
445.0519	3.32777
445.25555	-0
445.45919	2.48794
445.66281	2.32489
445.86642	2.69222
446.07002	2.46302
446.2736	2.53139
446.47718	-0
446.68074	2.39013
446.88429	2.42898
447.08782	2.20629
447.29135	2.65026
447.49486	2.63242
447.69836	2.84876
447.90185	2.69552
448.10533	2.70139
448.30879	2.3133
448.51224	2.25554
448.71568	2.39092
448.91911	2.31918
449.12252	2.52688
449.32593	2.63726
449.52932	2.63483
449.7327	2.33515
449.93606	2.31263
450.13942	2.40578
450.34276	2.68655
450.54609	2.86093
450.74941	2.54349
450.95271	2.44027
451.15601	2.65883
451.35929	3.90281
451.56255	4.78905
451.76581	2.75318
451.96906	2.68667
452.17229	2.43831
452.37551	2.13069
452.57871	2.52518
452.78191	2.29019
452.98509	2.41197
453.18826	2.81901
453.39142	2.42236
453.59457	2.73597
453.7977	2.33342
454.00082	-0
454.20393	2.26616
454.40703	2.73196
454.61011	2.30578
454.81319	2.66168
455.01625	-0
455.21929	2.73756
455.42233	2.4097
455.62535	3.07831
455.82836	2.35635
456.03136	2.50246
456.23435	2.67771
456.43732	2.33194
456.64029	2.36342
456.84324	2.14124
457.04617	2.30531
457.2491	2.52163
457.45201	3.14302
457.65491	2.46095
457.8578	3.19503
458.06068	2.48996
458.26354	2.52612
458.46639	2.60461
458.66923	2.32651
458.87206	2.5409
459.07487	2.31415
459.27767	2.36163
459.48046	2.51934
459.68324	2.50503
459.886	2.58014
460.08876	2.39798
460.2915	2.34982
460.49422	2.80769
460.69694	2.42925
460.89964	2.98888
461.10233	2.378
461.30501	2.41701
461.50768	2.75588
461.71033	2.33473
461.91297	-0
462.1156	2.61377
462.31822	2.42568
462.52082	2.46942
462.72342	3.7081
462.926	2.44021
463.12856	2.33945
463.33112	2.77088
463.53366	2.74437
463.73619	2.65203
463.93871	2.43389
464.14121	2.2988
464.34371	2.5335
464.54619	2.38517
464.74865	2.25942
464.95111	2.61366
465.15355	2.61306
465.35598	2.49893
465.5584	2.79769
465.76081	2.49524
465.9632	3.15106
466.16558	2.48121
466.36795	2.73018
466.57031	2.27817
466.77265	2.71738
466.97499	2.43752
467.1773	2.53235
467.37961	3.04482
467.58191	2.26488
467.78419	2.82131
467.98646	2.66885
468.18871	2.5392
468.39096	2.57633
468.59319	2.66855
468.79541	2.58308
468.99762	2.60319
469.19981	3.31863
469.402	3.00705
469.60417	2.42827
469.80632	2.59933
470.00847	2.36129
470.2106	-0
470.41272	2.86764
470.61483	2.42232
470.81692	2.87519
471.01901	2.37206
471.22108	2.43138
471.42313	2.56339
471.62518	2.50162
471.82721	2.71255
472.02923	-0
472.23124	2.5183
472.43323	2.47759
472.63522	2.40227
472.83719	2.63653
473.03915	2.62374
473.24109	2.63285
473.44302	3.31658
473.64494	2.41695
473.84685	2.44657
474.04875	2.5861
474.25063	2.50169
474.4525	2.57801
474.65436	2.42065
474.8562	2.74219
475.05804	2.93466
475.25986	2.37208
475.46166	2.40902
475.66346	2.54299
475.86524	2.5371
476.06701	2.68924
476.26877	2.86092
476.47051	2.52452
476.67225	2.54956
476.87397	2.4654
477.07567	3.32554
477.27737	2.50517
477.47905	2.63221
477.68072	2.74385
477.88238	2.5172
478.08402	3.10345
478.28565	2.46453
478.48727	2.48278
478.68888	2.44279
478.89048	2.43943
479.09206	3.63842
479.29363	2.64859
479.49518	2.93166
479.69673	3.12076
479.89826	2.48081
480.09978	2.64643
480.30128	2.57502
480.50278	2.5653
480.70426	3.06487
480.90573	3.17741
481.10718	2.66683
481.30863	2.49536
481.51006	2.83675
481.71147	2.5253
481.91288	2.55793
482.11427	2.49387
482.31565	2.66942
482.51702	2.3894
482.71838	2.53231
482.91972	2.50808
483.12105	-0
483.32237	2.52747
483.52367	2.53001
483.72496	2.62555
483.92624	2.68318
484.12751	2.51802
484.32876	2.4715
484.53	2.4081
484.73123	2.74967
484.93245	2.48188
485.13365	2.48873
485.33484	2.51511
485.53602	2.53753
485.73719	2.56873
485.93834	2.51105
486.13948	2.7909
486.34061	2.47843
486.54172	2.5436
486.74282	2.69691
486.94391	2.63165
487.14499	2.49252
487.34605	2.58184
487.54711	2.50197
487.74814	2.49049
487.94917	2.48718
488.15018	2.38062
488.35118	2.59591
488.55217	2.55832
488.75315	2.70293
488.95411	2.29859
489.15506	2.67747
489.356	2.60515
489.55692	2.5589
489.75783	2.43294
489.95873	2.58107
490.15962	2.38463
490.36049	2.51899
490.56136	2.42108
490.7622	2.47607
490.96304	2.53157
491.16386	2.59766
491.36467	2.44531
491.56547	2.71084
491.76625	2.45422
491.96703	2.58823
492.16779	2.51335
492.36853	2.4318
492.56927	2.55033
492.76999	2.33307
492.9707	2.55779
493.17139	2.53989
493.37207	2.58123
493.57274	2.38387
493.7734	2.74827
493.97405	2.51827
494.17468	2.36186
494.3753	2.43849
494.5759	2.66185
494.7765	2.50849
494.97708	2.49287
495.17764	2.5325
495.3782	2.48712
495.57874	2.26211
495.77927	2.44305
495.97979	2.48894
496.18029	2.47092
496.38078	2.44123
496.58126	2.41123
496.78173	2.5746
496.98218	2.38248
497.18262	2.4197
497.38305	2.38451
497.58346	2.54075
497.78386	2.28492
497.98425	2.27691
498.18463	2.35309
498.38499	2.29332
498.58534	2.33433
498.78568	2.46992
498.98601	2.54333
499.18632	2.26172
499.38662	2.41404
499.5869	2.37761
499.78718	2.42356
499.98744	2.40834
500.18769	2.36266
500.38792	2.36237
500.58814	2.33576
500.78835	2.32302
500.98855	2.26089
501.18873	2.32722
501.3889	2.45336
501.58906	2.2357
501.78921	2.47432
501.98934	2.34116
502.18946	2.35586
502.38956	2.35372
502.58966	2.2345
502.78974	2.32479
502.98981	2.33876
503.18986	2.32207
503.3899	2.34007
503.58993	2.3167
503.78995	2.28621
503.98995	2.36639
504.18994	2.35137
504.38992	2.40249
504.58989	2.27246
504.78984	2.22704
504.98978	2.43998
505.1897	2.2599
505.38962	2.30629
505.58952	2.24121
505.78941	2.17345
505.98928	2.24247
506.18914	2.25199
506.38899	2.2777
506.58883	2.21394
506.78865	2.24437
506.98846	2.28867
507.18826	2.16028
507.38804	2.29935
507.58781	2.27095
507.78757	2.18355
507.98732	2.15459
508.18705	2.32752
508.38677	2.21765
508.58648	2.18172
508.78617	2.21538
508.98585	2.1919
509.18552	2.13099
509.38517	2.25999
509.58481	2.17299
509.78444	2.25558
509.98406	2.24927
510.18366	2.23501
510.38325	2.20254
510.58283	2.11152
510.78239	2.18385
510.98195	2.17431
511.18148	2.18094
511.38101	2.16525
511.58052	2.21933
511.78002	2.2509
511.97951	2.12014
512.17898	2.16764
512.37844	2.19267
512.57789	2.12877
512.77732	2.09962
512.97674	2.2127
513.17615	2.16654
513.37555	2.12407
513.57493	2.09878
513.7743	2.22398
513.97365	2.06275
514.173	2.08609
514.37233	2.1553
514.57165	2.1474
514.77095	2.13975
514.97024	2.092
515.16952	2.05972
515.36879	2.11803
515.56804	2.04557
515.76728	2.0298
515.9665	2.06367
516.16572	2.11154
516.36492	2.06174
516.5641	2.0608
516.76328	2.01339
516.96244	2.03112
517.16159	2.08891
517.36072	2.07582
517.55984	2.0658
517.75895	2.06084
517.95805	2.03729
518.15713	2.03623
518.3562	1.98093
518.55526	1.99714
518.7543	2.00895
518.95333	2.04614
519.15235	2.02849
519.35135	2.0427
519.55034	1.98778
519.74932	2.01862
519.94829	2.00258
520.14724	2.02209
520.34618	1.95754
520.5451	1.91139
520.74402	1.96123
520.94292	2.0071
521.1418	1.98354
521.34068	1.99361
521.53954	1.98699
521.73838	1.96305
521.93722	1.95119
522.13604	1.97435
522.33485	1.93735
522.53364	1.92946
522.73242	1.98753
522.93119	1.92188
523.12995	1.90957
523.32869	1.88566
523.52742	1.90297
523.72613	1.94043
523.92484	1.94689
524.12353	1.90367
524.3222	1.93127
524.52087	1.88084
524.71952	1.9132
524.91815	1.90817
525.11678	1.90095
525.31539	1.89938
525.51399	1.91024
525.71257	1.85982
525.91114	1.84614
526.1097	1.8655
526.30825	1.86637
526.50678	1.91932
526.7053	1.85577
526.9038	1.84763
527.1023	1.88211
527.30078	1.85557
527.49924	1.85178
527.69769	1.84471
527.89613	1.8614
528.09456	1.83427
528.29297	1.8429
528.49137	1.85378
528.68976	1.83835
528.88814	1.80185
529.0865	1.81512
529.28484	1.81337
529.48318	1.81408
529.6815	1.81093
529.87981	1.81955
530.0781	1.80238
530.27638	1.7791
530.47465	1.77188
530.67291	1.7864
530.87115	1.75862
531.06938	1.75683
531.26759	1.77776
531.46579	1.77657
531.66398	1.75203
531.86216	1.77655
532.06032	1.82091
532.25847	1.76392
532.45661	1.7504
532.65473	1.74423
532.85284	1.73041
533.05094	1.74547
533.24902	1.75664
533.44709	1.7335
533.64514	1.73597
533.84319	1.72879
534.04122	1.70546
534.23923	1.73541
534.43724	1.70558
534.63523	1.7092
534.83321	1.72011
535.03117	1.72149
535.22912	1.72815
535.42706	1.71354
535.62498	1.71963
535.82289	1.68476
536.02079	1.68701
536.21867	1.68712
536.41654	1.66841
536.6144	1.68941
536.81225	1.67503
537.01008	1.68324
537.20789	1.66102
537.4057	1.65838
537.60349	1.66968
537.80127	1.66433
537.99903	1.66766
538.19678	1.65275
538.39452	1.65462
538.59224	1.64135
538.78995	1.65356
538.98765	1.63687
539.18534	1.65037
539.38301	1.63078
539.58067	1.62924
539.77831	1.64125
539.97594	1.61256
540.17356	1.6065
540.37116	1.60509
540.56876	1.61795
540.76633	1.61454
540.9639	1.61497
541.16145	1.60442
541.35899	1.59809
541.55651	1.58847
541.75402	1.57452
541.95152	1.56719
542.149	1.57534
542.34647	1.58283
542.54393	1.58383
542.74138	1.57218
542.93881	1.57573
543.13623	1.57519
543.33363	1.58847
543.53102	1.56468
543.7284	1.56735
543.92576	1.53664
544.12311	1.55599
544.32045	1.55168
544.51777	1.5525
544.71508	1.55556
544.91238	1.54285
545.10966	1.54079
545.30693	1.54004
545.50419	1.5355
545.70143	1.53452
545.89866	1.53135
546.09588	1.51519
546.29308	1.5237
546.49027	1.546
546.68745	1.51556
546.88461	1.52165
547.08176	1.51895
547.2789	1.52088
547.47602	1.50316
547.67313	1.50239
547.87023	1.5004
548.06731	1.49242
548.26438	1.48158
548.46143	1.48585
548.65848	1.49886
548.8555	1.47257
549.05252	1.48515
549.24952	1.4811
549.44651	1.47708
549.64348	1.46741
549.84045	1.48067
550.03739	1.46652
550.23433	1.45836
550.43125	1.469
550.62816	1.45824
550.82505	1.47273
551.02193	1.44818
551.2188	1.45425
551.41565	1.45314
551.61249	1.43667
551.80932	1.43658
552.00613	1.44785
552.20293	1.44577
552.39972	1.42932
552.59649	1.43591
552.79325	1.41812
552.99	1.42602
553.18673	1.43159
553.38345	1.41482
553.58015	1.40972
553.77684	1.4224
553.97352	1.41372
554.17019	1.41226
554.36684	1.40641
554.56348	1.39644
554.7601	1.40386
554.95671	1.39246
555.15331	1.39772
555.34989	1.39318
555.54646	1.39516
555.74302	1.37371
555.93956	1.38885
556.13609	1.37675
556.33261	1.38431
556.52911	1.37453
556.7256	1.37814
556.92207	1.37801
557.11854	1.3742
557.31498	1.36218
557.51142	1.36172
557.70784	1.36932
557.90425	1.36737
558.10064	1.35949
558.29702	1.35503
558.49339	1.35427
558.68974	1.35374
558.88608	1.3446
559.08241	1.35297
559.27872	1.33488
559.47502	1.34239
559.6713	1.33949
559.86758	1.33676
560.06383	1.33575
560.26008	1.34216
560.45631	1.32392
560.65253	1.32978
560.84873	1.3185
561.04492	1.33233
561.2411	1.31841
561.43726	1.31633
561.63341	1.30764
561.82955	1.31342
562.02567	1.31045
562.22178	1.30732
562.41787	1.32059
562.61395	1.30699
562.81002	1.29013
563.00608	1.30054
563.20212	1.29399
563.39814	1.3046
563.59416	1.29373
563.79016	1.28188
563.98614	1.2825
564.18211	1.28594
564.37807	1.27956
564.57402	1.28032
564.76995	1.28355
564.96587	1.28334
565.16177	1.27731
565.35766	1.27459
565.55354	1.28068
565.7494	1.26684
565.94525	1.26665
566.14109	1.26192
566.33691	1.26076
566.53272	1.26101
566.72851	1.25367
566.92429	1.24983
567.12006	1.25926
567.31581	1.25406
567.51155	1.25141
567.70728	1.24353
567.90299	1.23813
568.09869	1.24163
568.29438	1.24219
568.49005	1.24279
568.68571	1.23302
568.88135	1.23398
569.07698	1.23854
569.2726	1.23048
569.4682	1.23081
569.66379	1.21904
569.85937	1.22668
570.05493	1.22435
570.25048	1.2284
570.44601	1.22042
570.64153	1.21163
570.83704	1.21475
571.03253	1.21812
571.22801	1.21086
571.42348	1.20155
571.61893	1.2023
571.81437	1.20509
572.0098	1.20102
572.20521	1.20303
572.4006	1.19886
572.59599	1.20001
572.79136	1.19224
572.98671	1.19031
573.18206	1.19261
573.37738	1.19577
573.5727	1.1864
573.768	1.19194
573.96329	1.1869
574.15856	1.17992
574.35382	1.18269
574.54907	1.17707
574.7443	1.16994
574.93952	1.17499
575.13472	1.16725
575.32991	1.16586
575.52509	1.17262
575.72025	1.16597
575.9154	1.16547
576.11054	1.15745
576.30566	1.15889
576.50077	1.15791
576.69586	1.16046
576.89094	1.16351
577.08601	1.14964
577.28106	1.15212
577.4761	1.15185
577.67113	1.14799
577.86614	1.14566
578.06114	1.145
578.25612	1.14712
578.45109	1.14191
578.64605	1.13905
578.84099	1.14755
579.03592	1.14052
579.23083	1.13426
579.42573	1.14251
579.62062	1.13232
579.81549	1.12511
580.01035	1.1338
580.2052	1.12327
580.40003	1.12577
580.59485	1.12632
580.78965	1.12379
580.98444	1.12159
581.17922	1.11978
581.37398	1.11771
581.56873	1.11887
581.76346	1.11182
581.95818	1.11859
582.15289	1.11449
582.34758	1.10705
582.54226	1.10981
582.73693	1.10822
582.93158	1.10662
583.12622	1.10504
583.32084	1.09855
583.51545	1.10282
583.71005	1.09829
583.90463	1.09995
584.0992	1.09396
584.29375	1.09237
584.48829	1.09117
584.68282	1.09144
584.87733	1.08795
585.07183	1.08866
585.26631	1.0869
585.46079	1.08619
585.65524	1.08892
585.84969	1.08213
586.04411	1.07774
586.23853	1.07842
586.43293	1.07891
586.62732	1.0807
586.82169	1.07253
587.01605	1.07417
587.2104	1.07527
587.40473	1.06977
587.59905	1.06845
587.79335	1.06841
587.98764	1.06832
588.18192	1.06408
588.37618	1.06245
588.57043	1.05915
588.76466	1.05933
588.95888	1.05891
589.15309	1.05408
589.34728	1.05355
589.54146	1.05518
589.73562	1.05071
589.92977	1.05194
590.12391	1.05235
590.31803	1.05068
590.51214	1.04736
590.70623	1.04382
590.90031	1.04208
591.09438	1.04543
591.28843	1.03923
591.48247	1.03897
591.67649	1.03758
591.8705	1.03547
592.0645	1.03416
592.25848	1.03482
592.45245	1.03175
592.64641	1.02997
592.84035	1.02937
593.03427	1.0269
593.22818	1.02803
593.42208	1.02207
593.61597	1.02344
593.80984	1.02505
594.00369	1.02232
594.19754	1.01942
594.39136	1.0177
594.58518	1.01813
594.77898	1.01774
594.97277	1.0135
595.16654	1.01517
595.3603	1.01239
595.55404	1.00862
595.74777	1.01178
595.94149	1.00926
596.13519	1.0073
596.32888	1.0073
596.52255	1.00898
596.71621	1.00633
596.90985	1.00178
597.10349	1.00207
597.2971	1.00069
597.49071	0.99862
597.6843	0.99824
597.87787	0.99721
598.07143	0.99498
598.26498	0.99262
598.45851	0.99655
598.65203	0.99383
598.84554	0.99222
599.03903	0.99256
599.23251	0.98943
599.42597	0.98984
599.61942	0.98814
599.81285	0.98955
600.00627	0.98585
600.19968	0.98481
600.39307	0.98117
600.58645	0.98532
600.77981	0.98168
600.97316	0.98073
601.1665	0.98236
601.35982	0.97763
601.55313	0.97612
601.74642	0.97566
601.9397	0.97323
602.13297	0.97401
602.32622	0.96706
602.51946	0.96925
602.71268	0.96842
602.90589	0.96483
603.09908	0.96151
603.29226	0.96582
603.48543	0.96121
603.67858	0.96365
603.87172	0.96044
604.06484	0.95846
604.25795	0.95722
604.45105	0.95777
604.64413	0.95542
604.8372	0.95604
605.03025	0.95003
605.22329	0.9531
605.41631	0.94844
605.60932	0.94817
605.80232	0.94936
605.9953	0.94552
606.18827	0.94802
606.38122	0.94388
606.57416	0.94307
606.76709	0.94566
606.96	0.94144
607.1529	0.93859
607.34578	0.93777
607.53865	0.93543
607.7315	0.93756
607.92434	0.93359
608.11717	0.93286
608.30998	0.93382
608.50278	0.9312
608.69556	0.93009
608.88833	0.92977
609.08109	0.92978
609.27383	0.92778
609.46656	0.92743
609.65927	0.92585
609.85197	0.92864
610.04465	0.92245
610.23732	0.9186
610.42998	0.92188
610.62262	0.91899
610.81525	0.92137
611.00786	0.91815
611.20046	0.91536
611.39304	0.91485
611.58561	0.91346
611.77817	0.91328
611.97071	0.90937
612.16324	0.91076
612.35575	0.91075
612.54825	0.9089
612.74073	0.90861
612.9332	0.90805
613.12566	0.90347
613.3181	0.90324
613.51053	0.90516
613.70294	0.90094
613.89534	0.90211
614.08772	0.90155
614.2801	0.89805
614.47245	0.9011
614.66479	0.89793
614.85712	0.89469
615.04943	0.89515
615.24173	0.89524
615.43402	0.8932
615.62629	0.89578
615.81854	0.89286
616.01079	0.89248
616.20301	0.89178
616.39523	0.89279
616.58743	0.88825
616.77961	0.88696
616.97178	0.88856
617.16394	0.88517
617.35608	0.88722
617.5482	0.88427
617.74032	0.87992
617.93242	0.88109
618.1245	0.88004
618.31657	0.88013
618.50863	0.87696
618.70067	0.87349
618.89269	0.87867
619.08471	0.87711
619.27671	0.87496
619.46869	0.87684
619.66066	0.87582
619.85261	0.87082
620.04455	0.87082
620.23648	0.87108
620.42839	0.8694
620.62029	0.87056
620.81217	0.86606
621.00404	0.86535
621.1959	0.86657
621.38774	0.86358
621.57956	0.86352
621.77138	0.85917
621.96317	0.86306
622.15496	0.85915
622.34672	0.85869
622.53848	0.86024
622.73022	0.85737
622.92194	0.85784
623.11365	0.85543
623.30535	0.85317
623.49703	0.85664
623.6887	0.85286
623.88035	0.85195
624.07199	0.85027
624.26362	0.84987
624.45523	0.84996
624.64682	0.84933
624.8384	0.84673
625.02997	0.84748
625.22152	0.84609
625.41306	0.84513
625.60458	0.84059
625.79609	0.84438
625.98759	0.84344
626.17907	0.84149
626.37053	0.8429
626.56198	0.83772
626.75342	0.8369
626.94484	0.83929
627.13625	0.83596
627.32764	0.83692
627.51902	0.83526
627.71039	0.83283
627.90174	0.83163
628.09307	0.8306
628.28439	0.83268
628.4757	0.83017
628.66699	0.82776
628.85827	0.82797
629.04953	0.82634
629.24078	0.82733
629.43202	0.82685
629.62324	0.82499
629.81444	0.82155
630.00563	0.82179
630.19681	0.82228
630.38797	0.82114
630.57912	0.81801
630.77025	0.81847
630.96137	0.8205
631.15247	0.81868
631.34356	0.81664
631.53464	0.81674
631.7257	0.81694
631.91674	0.81441
632.10778	0.8125
632.29879	0.814
632.48979	0.81291
632.68078	0.81316
632.87176	0.80778
633.06271	0.81214
633.25366	0.81143
633.44459	0.80827
633.6355	0.80682
633.8264	0.80428
634.01729	0.80712
634.20816	0.80662
634.39902	0.80182
634.58986	0.80397
634.78069	0.80078
634.9715	0.80119
635.1623	0.80199
635.35309	0.79872
635.54385	0.80149
635.73461	0.79876
635.92535	0.79757
636.11608	0.79864
636.30679	0.79391
636.49748	0.79412
636.68817	0.7954
636.87883	0.79084
637.06949	0.79241
637.26013	0.78957
637.45075	0.79003
637.64136	0.78842
637.83195	0.78809
638.02253	0.78754
638.2131	0.78593
638.40365	0.78718
638.59419	0.78405
638.78471	0.78378
638.97522	0.78158
639.16571	0.78357
639.35619	0.7792
639.54665	0.78096
639.7371	0.7808
639.92753	0.7781
640.11795	0.77994
640.30836	0.7788
640.49875	0.77739
640.68912	0.77633
640.87949	0.7739
641.06983	0.77238
641.26016	0.77227
641.45048	0.77384
641.64078	0.77432
641.83107	0.77205
642.02134	0.76973
642.2116	0.76929
642.40185	0.76696
642.59208	0.76838
642.78229	0.76553
642.97249	0.76912
643.16268	0.76368
643.35285	0.76316
643.543	0.76284
643.73314	0.76331
643.92327	0.76445
644.11338	0.7619
644.30348	0.7604
644.49356	0.76328
644.68363	0.7591
644.87368	0.75918
645.06372	0.75658
645.25375	0.75496
645.44376	0.75494
645.63375	0.75467
645.82373	0.75644
646.0137	0.75475
646.20365	0.75456
646.39358	0.75425
646.5835	0.75191
646.77341	0.75269
646.9633	0.75148
647.15318	0.74979
647.34304	0.74604
647.53289	0.74847
647.72272	0.74687
647.91254	0.74547
648.10234	0.74661
648.29213	0.74305
648.4819	0.74681
648.67166	0.74557
648.86141	0.7436
649.05114	0.74382
649.24085	0.74246
649.43055	0.74178
649.62024	0.7387
649.80991	0.73946
649.99957	0.73848
650.18921	0.73888
650.37883	0.73624
650.56844	0.73621
650.75804	0.73464
650.94762	0.73539
651.13719	0.7333
651.32674	0.73359
651.51628	0.73207
651.70581	0.732
651.89531	0.73201
652.08481	0.73157
652.27429	0.73016
652.46375	0.72842
652.6532	0.72757
652.84263	0.72643
653.03205	0.72713
653.22146	0.72689
653.41085	0.72403
653.60022	0.72531
653.78958	0.72101
653.97893	0.72239
654.16826	0.7224
654.35758	0.71982
654.54688	0.71991
654.73617	0.72232
654.92544	0.71951
655.11469	0.71874
655.30394	0.71796
655.49316	0.72017
655.68238	0.71908
655.87157	0.71849
656.06076	0.71789
656.24992	0.71745
656.43908	0.71744
656.62822	0.71501
656.81734	0.71354
657.00645	0.71506
657.19554	0.71147
657.38462	0.70913
657.57368	0.71037
657.76273	0.71144
657.95177	0.70969
658.14079	0.70641
658.32979	0.70614
658.51878	0.70593
658.70776	0.70349
658.89672	0.70282
659.08566	0.70352
659.27459	0.70247
659.46351	0.70207
659.65241	0.69961
659.84129	0.70203
660.03016	0.69922
660.21902	0.70173
660.40786	0.69673
660.59669	0.69959
660.7855	0.69725
660.9743	0.69648
661.16308	0.69536
661.35184	0.69506
661.5406	0.69357
661.72933	0.69395
661.91805	0.69326
662.10676	0.693
662.29545	0.69324
662.48413	0.69137
662.67279	0.69147
662.86144	0.68958
663.05007	0.68594
663.23869	0.68816
663.42729	0.68816
663.61588	0.68461
663.80445	0.68562
663.99301	0.686
664.18155	0.68635
664.37008	0.68564
664.55859	0.68224
664.74709	0.68402
664.93557	0.68033
665.12404	0.6807
665.3125	0.68183
665.50093	0.68045
665.68936	0.6793
665.87777	0.67921
666.06616	0.67861
666.25454	0.67707
666.4429	0.67709
666.63125	0.67496
666.81958	0.67648
667.0079	0.67649
667.19621	0.67556
667.38449	0.67294
667.57277	0.67398
667.76103	0.67345
667.94927	0.67123
668.1375	0.6711
668.32571	0.6689
668.51391	0.67019
668.70209	0.66859
668.89026	0.66703
669.07842	0.67006
669.26656	0.67011
669.45468	0.66675
669.64279	0.66501
669.83088	0.66331
670.01896	0.66349
670.20702	0.66447
670.39507	0.66583
670.58311	0.66415
670.77112	0.66174
670.95913	0.66354
671.14712	0.66174
671.33509	0.66249
671.52305	0.66245
671.71099	0.66008
671.89892	0.65867
672.08683	0.65762
672.27473	0.65572
672.46262	0.65472
672.65048	0.65678
672.83834	0.65647
673.02617	0.6555
673.214	0.65523
673.40181	0.65287
673.5896	0.65256
673.77738	0.65369
673.96514	0.65207
674.15289	0.65325
674.34062	0.6495
674.52834	0.65075
674.71604	0.65067
674.90373	0.64963
675.0914	0.6482
675.27906	0.64808
675.4667	0.64455
675.65433	0.64663
675.84194	0.64703
676.02954	0.64602
676.21712	0.64541
676.40468	0.64373
676.59224	0.64471
676.77977	0.64367
676.96729	0.6429
677.1548	0.64311
677.34229	0.64185
677.52977	0.64071
677.71723	0.64
677.90467	0.63959
678.09211	0.63968
678.27952	0.63802
678.46692	0.63827
678.65431	0.63709
678.84168	0.63673
679.02903	0.63414
679.21637	0.63581
679.4037	0.63648
679.59101	0.63412
679.7783	0.6339
679.96558	0.63332
680.15285	0.63373
680.34009	0.63299
680.52733	0.63197
680.71455	0.62991
680.90175	0.63021
681.08894	0.63066
681.27611	0.62932
681.46327	0.62911
681.65041	0.62925
681.83754	0.62854
682.02465	0.62702
682.21175	0.62787
682.39883	0.6251
682.5859	0.62661
682.77295	0.62656
682.95999	0.62754
683.14701	0.6225
683.33402	0.62509
683.52101	0.62363
683.70799	0.6229
683.89495	0.62235
684.08189	0.62279
684.26882	0.62222
684.45574	0.62062
684.64264	0.61974
684.82952	0.61985
685.01639	0.62091
685.20325	0.61783
685.39009	0.61821
685.57691	0.61663
685.76372	0.61609
685.95051	0.61767
686.13729	0.61639
686.32405	0.61511
686.5108	0.61782
686.69753	0.61475
686.88425	0.61408
687.07095	0.61647
687.25764	0.61385
687.44431	0.61377
687.63097	0.61247
687.81761	0.61291
688.00424	0.61404
688.19085	0.61117
688.37744	0.60982
688.56402	0.61203
688.75059	0.6115
688.93714	0.60895
689.12367	0.60902
689.31019	0.60809
689.49669	0.60656
689.68318	0.60512
689.86966	0.60447
690.05611	0.60628
690.24256	0.60452
690.42898	0.60512
690.6154	0.60395
690.80179	0.60257
690.98818	0.60555
691.17454	0.60373
691.36089	0.60309
691.54723	0.60116
691.73355	0.60147
691.91985	0.60189
692.10614	0.60059
692.29242	0.60188
692.47868	0.59923
692.66492	0.59802
692.85115	0.59824
693.03736	0.59788
693.22356	0.59607
693.40974	0.59735
693.59591	0.5994
693.78206	0.59698
693.9682	0.59769
694.15432	0.5953
694.34043	0.59481
694.52652	0.59338
694.71259	0.59398
694.89865	0.59675
695.0847	0.5936
695.27073	0.59383
695.45674	0.59264
695.64274	0.59251
695.82872	0.59331
696.01469	0.59214
696.20064	0.59035
696.38658	0.59089
696.5725	0.58974
696.75841	0.58941
696.9443	0.58831
697.13017	0.58911
697.31603	0.58692
697.50188	0.58766
697.68771	0.58871
697.87352	0.58727
698.05932	0.5886
698.2451	0.58608
698.43087	0.58703
698.61662	0.58679
698.80236	0.58616
698.98808	0.58581
699.17379	0.58574
699.35948	0.5838
699.54516	0.5835
699.73082	0.58315
699.91646	0.58538
700.10209	0.58322
700.2877	0.58382
700.4733	0.58215
700.65888	0.58114
700.84445	0.58225
701.03	0.58063
701.21554	0.58236
701.40106	0.58191
701.58657	0.58125
701.77206	0.57893
701.95753	0.57928
702.14299	0.57929
702.32844	0.57637
702.51387	0.57727
702.69928	0.57613
702.88468	0.57739
703.07006	0.57684
703.25543	0.57497
703.44078	0.57619
703.62611	0.57565
703.81143	0.57548
703.99674	0.57595
704.18203	0.57345
704.3673	0.5764
704.55256	0.57339
704.7378	0.57456
704.92303	0.57283
705.10824	0.57355
705.29344	0.57453
705.47862	0.57239
705.66379	0.5732
705.84894	0.57262
706.03407	0.5723
706.21919	0.5709
706.4043	0.5712
706.58938	0.57098
706.77446	0.57034
706.95951	0.57048
707.14456	0.56822
707.32958	0.56852
707.51459	0.56749
707.69959	0.56858
707.88457	0.56952
708.06953	0.56767
708.25448	0.5684
708.43941	0.5684
708.62433	0.56625
708.80923	0.56744
708.99412	0.56674
709.17899	0.56484
709.36385	0.56676
709.54869	0.56465
709.73351	0.56584
709.91832	0.56391
710.10311	0.56401
710.28789	0.56264
710.47265	0.56426
710.6574	0.56186
710.84213	0.56169
711.02685	0.56358
711.21155	0.56114
711.39623	0.56231
711.5809	0.56176
711.76555	0.56171
711.95019	0.56222
712.13481	0.56158
712.31942	0.56009
712.50401	0.56156
712.68859	0.55883
712.87314	0.55803
713.05769	0.55852
713.24222	0.55926
713.42673	0.55839
713.61123	0.5594
713.79571	0.55888
713.98018	0.5577
714.16463	0.55764
714.34906	0.55845
714.53348	0.55704
714.71788	0.55724
714.90227	0.55654
715.08665	0.55528
715.271	0.55354
715.45534	0.55524
715.63967	0.55725
715.82398	0.55434
716.00827	0.55568
716.19255	0.55533
716.37682	0.55416
716.56106	0.55444
716.7453	0.55462
716.92951	0.55285
717.11371	0.55355
717.2979	0.55202
717.48207	0.55411
717.66622	0.55393
717.85036	0.55109
718.03448	0.54919
718.21859	0.55228
718.40268	0.55244
718.58675	0.5521
718.77081	0.55147
718.95486	0.55159
719.13889	0.55027
719.3229	0.55123
719.5069	0.54917
719.69088	0.5512
719.87484	0.55111
720.05879	0.54935
720.24273	0.55192
720.42665	0.54753
720.61055	0.55127
720.79444	0.54877
720.97831	0.55046
721.16216	0.55006
721.346	0.54808
721.52983	0.54913
721.71364	0.54808
721.89743	0.54834
722.08121	0.54847
722.26497	0.54796
722.44872	0.54627
722.63245	0.54798
722.81616	0.54816
722.99986	0.5464
723.18354	0.54621
723.36721	0.5471
723.55086	0.54559
723.7345	0.54808
723.91812	0.54585
724.10172	0.54628
724.28531	0.54491
724.46888	0.54416
724.65244	0.54577
724.83598	0.5444
725.01951	0.54382
725.20302	0.54597
725.38651	0.54363
725.56999	0.54326
725.75345	0.54397
725.9369	0.54484
726.12033	0.54393
726.30374	0.54274
726.48714	0.54193
726.67053	0.5427
726.8539	0.5426
727.03725	0.54158
727.22059	0.54124
727.40391	0.54316
727.58721	0.54193
727.7705	0.54418
727.95377	0.54238
728.13703	0.54087
728.32027	0.54257
728.5035	0.54011
728.68671	0.54238
728.8699	0.54117
729.05308	0.54064
729.23624	0.53894
729.41939	0.54122
729.60252	0.54028
729.78564	0.5404
729.96874	0.53985
730.15182	0.53783
730.33489	0.53982
730.51794	0.53781
730.70098	0.53981
730.884	0.53909
731.067	0.53904
731.24999	0.53757
731.43296	0.53978
731.61592	0.5385
731.79886	0.53893
731.98179	0.53813
732.1647	0.5389
732.34759	0.53624
732.53047	0.53702
732.71333	0.53656
732.89618	0.53659
733.07901	0.53562
733.26182	0.53727
733.44462	0.53584
733.6274	0.53439
733.81017	0.53431
733.99292	0.53479
734.17565	0.53485
734.35837	0.53358
734.54108	0.53486
734.72376	0.53422
734.90644	0.53499
735.08909	0.53413
735.27173	0.53511
735.45435	0.53401
735.63696	0.53428
735.81955	0.53405
736.00213	0.53507
736.18469	0.53494
736.36724	0.53278
736.54976	0.53307
736.73228	0.53283
736.91477	0.53292
737.09725	0.53293
737.27972	0.53309
737.46217	0.52984
737.6446	0.53178
737.82702	0.53156
738.00942	0.53193
738.1918	0.53121
738.37417	0.53048
738.55653	0.52975
738.73886	0.53027
738.92118	0.53047
739.10349	0.52909
739.28578	0.53057
739.46805	0.52981
739.65031	0.52903
739.83255	0.52842
740.01478	0.52884
740.19699	0.52829
740.37918	0.5284
740.56136	0.52841
740.74352	0.52734
740.92567	0.52848
741.1078	0.52968
741.28991	0.52659
741.47201	0.52664
741.65409	0.52688
741.83616	0.5266
742.01821	0.52663
742.20024	0.52613
742.38226	0.52531
742.56426	0.52357
742.74625	0.52308
742.92822	0.52294
743.11017	0.52463
743.29211	0.52096
743.47403	0.52282
743.65594	0.52157
743.83783	0.52142
744.0197	0.52171
744.20156	0.51986
744.3834	0.51958
744.56523	0.5193
744.74704	0.51849
744.92883	0.51929
745.11061	0.51716
745.29237	0.51946
745.47412	0.51749
745.65585	0.51501
745.83756	0.5155
746.01926	0.51506
746.20094	0.51449
746.38261	0.51403
746.56426	0.51409
746.74589	0.51189
746.92751	0.51148
747.10911	0.51171
747.2907	0.50923
747.47227	0.50875
747.65382	0.50844
747.83536	0.50773
748.01688	0.507
748.19838	0.50702
748.37987	0.50557
748.56135	0.50504
748.7428	0.50367
748.92424	0.50362
749.10567	0.50194
749.28708	0.5009
749.46847	0.50108
749.64985	0.49896
749.83121	0.49784
750.01255	0.49671
750.19388	0.49655
750.37519	0.49493
750.55649	0.49379
750.73777	0.49388
750.91903	0.4926
751.10028	0.49166
751.28151	0.49074
751.46273	0.48869
751.64393	0.48764
751.82511	0.48723
752.00628	0.4844
752.18743	0.48345
752.36856	0.48411
752.54968	0.48062
752.73079	0.4805
752.91187	0.47901
753.09294	0.47775
753.274	0.4745
753.45504	0.47385
753.63606	0.47193
753.81706	0.47089
753.99805	0.47036
754.17903	0.46728
754.35998	0.46652
754.54093	0.46385
754.72185	0.4622
754.90276	0.46151
755.08365	0.45909
755.26453	0.45721
755.44539	0.4564
755.62623	0.45401
755.80706	0.45147
755.98787	0.45052
756.16867	0.44915
756.34945	0.44716
756.53021	0.44358
756.71096	0.43987
756.89169	0.44001
757.07241	0.43772
757.25311	0.43384
757.43379	0.43299
757.61445	0.43149
757.79511	0.42845
757.97574	0.42842
758.15636	0.425
758.33696	0.42149
758.51754	0.42127
758.69811	0.41714
758.87867	0.41529
759.0592	0.41295
759.23972	0.41119
759.42023	0.40902
759.60072	0.40705
759.78119	0.40421
759.96164	0.3999
760.14208	0.39811
760.32251	0.39541
760.50291	0.39388
760.6833	0.39186
760.86368	0.38722
761.04404	0.38631
761.22438	0.38373
761.4047	0.38
761.58501	0.37606
761.76531	0.37599
761.94558	0.37213
762.12584	0.36947
762.30609	0.36674
762.48632	0.36339
762.66653	0.36134
762.84672	0.3598
763.0269	0.35547
763.20707	0.35363
763.38721	0.35107
763.56734	0.34771
763.74746	0.34353
763.92756	0.34125
764.10764	0.33922
764.2877	0.33537
764.46775	0.33257
764.64778	0.32961
764.8278	0.32827
765.0078	0.32499
765.18779	0.3214
765.36775	0.32007
765.5477	0.31747
765.72764	0.31358
765.90756	0.31212
766.08746	0.31065
766.26735	0.30715
766.44722	0.30421
766.62707	0.3015
766.80691	0.29826
766.98673	0.29633
767.16653	0.29339
767.34632	0.28999
767.52609	0.28905
767.70585	0.28488
767.88559	0.28191
768.06531	0.2803
768.24502	0.27762
768.42471	0.27489
768.60438	0.27317
768.78404	0.27124
768.96368	0.26813
769.1433	0.26574
769.32291	0.26322
769.5025	0.26063
769.68208	0.25789
769.86164	0.25767
770.04118	0.25383
770.22071	0.2533
770.40022	0.25044
770.57971	0.2481
770.75919	0.24571
770.93865	0.24319
771.11809	0.24127
771.29752	0.23787
771.47693	0.23707
771.65633	0.23529
771.83571	0.23301
772.01507	0.23077
772.19442	0.2294
772.37375	0.22739
772.55306	0.22517
772.73236	0.22349
772.91164	0.22201
773.0909	0.22083
773.27015	0.21734
773.44938	0.21781
773.6286	0.21587
773.8078	0.21333
773.98698	0.21134
774.16614	0.20992
774.34529	0.20795
774.52443	0.20692
774.70354	0.20552
774.88264	0.20519
775.06173	0.20401
775.24079	0.20211
775.41984	0.20008
775.59888	0.19978
775.77789	0.1979
775.9569	0.19641
776.13588	0.19521
776.31485	0.19369
776.4938	0.19226
776.67274	0.19188
776.85166	0.19042
777.03056	0.19023
777.20944	0.18802
777.38831	0.18761
777.56717	0.18671
777.746	0.18514
777.92482	0.18503
778.10363	0.18411
778.28242	0.18239
778.46119	0.1823
778.63994	0.18041
778.81868	0.17949
778.9974	0.17978
779.1761	0.17777
779.35479	0.1779
779.53346	0.17774
779.71212	0.17577
779.89076	0.17399
780.06938	0.17419
780.24799	0.17368
780.42658	0.17323
780.60515	0.1722
780.78371	0.1724
780.96225	0.17072
781.14077	0.17064
781.31928	0.17116
781.49777	0.16988
781.67624	0.16965
781.8547	0.16923
782.03314	0.16909
782.21156	0.16753
782.38997	0.16697
782.56836	0.16681
782.74673	0.16632
782.92509	0.16494
783.10343	0.16581
783.28176	0.16687
783.46007	0.16729
783.63836	0.16559
783.81663	0.16456
783.99489	0.16594
784.17313	0.16478
784.35136	0.16418
784.52957	0.16407
784.70776	0.16367
784.88593	0.16465
785.06409	0.16354
785.24224	0.1626
785.42036	0.16453
785.59847	0.16412
785.77656	0.16292
785.95464	0.16473
786.1327	0.16433
786.31074	0.16262
786.48877	0.16304
786.66678	0.16282
786.84477	0.16383
787.02275	0.16281
787.20071	0.16476
787.37865	0.16303
787.55658	0.16194
787.73449	0.16299
787.91238	0.16246
788.09026	0.16306
788.26812	0.16201
788.44596	0.16337
788.62379	0.16273
788.8016	0.16239
788.9794	0.1638
789.15717	0.16275
789.33493	0.16357
789.51268	0.16422
789.6904	0.16402
789.86811	0.16482
790.04581	0.16419
790.22349	0.16464
790.40115	0.16579
790.57879	0.16334
790.75642	0.16581
790.93403	0.16543
791.11162	0.16502
791.2892	0.16445
791.46676	0.16501
791.6443	0.16568
791.82183	0.16633
791.99934	0.16589
792.17684	0.16574
792.35431	0.16549
792.53177	0.16617
792.70922	0.1678
792.88665	0.16664
793.06406	0.16751
793.24145	0.16802
793.41883	0.16751
793.59619	0.16918
793.77353	0.17076
793.95086	0.16915
794.12817	0.1711
794.30546	0.16998
794.48274	0.17009
794.66	0.16987
794.83724	0.16897
795.01447	0.17058
795.19168	0.16976
795.36887	0.17018
795.54605	0.17146
795.72321	0.17283
795.90035	0.17179
796.07748	0.17277
796.25459	0.17258
796.43168	0.17284
796.60876	0.17264
796.78582	0.17375
796.96286	0.17214
797.13989	0.17465
797.3169	0.17322
797.49389	0.17506
797.67086	0.17473
797.84782	0.17445
798.02477	0.17404
798.20169	0.1745
798.3786	0.17397
798.55549	0.17506
798.73237	0.1746
798.90923	0.17628
799.08607	0.17633
799.26289	0.17805
799.4397	0.17648
799.61649	0.1778
799.79327	0.17781
799.97002	0.1771
800.14676	0.1793
800.32349	0.17939
800.5002	0.17871
800.67689	0.1792
800.85356	0.18122
801.03022	0.18114
801.20686	0.18133
801.38348	0.18054
801.56009	0.18119
801.73668	0.18187
801.91325	0.18308
802.08981	0.18205
802.26635	0.18096
802.44287	0.18271
802.61937	0.18297
802.79586	0.18266
802.97233	0.18381
803.14879	0.18446
803.32523	0.18353
803.50165	0.1848
803.67805	0.18416
803.85444	0.18498
804.03081	0.18557
804.20717	0.18501
804.3835	0.18653
804.55983	0.18691
804.73613	0.18619
804.91242	0.18845
805.08869	0.18753
805.26494	0.18768
805.44117	0.18907
805.61739	0.18912
805.7936	0.18911
805.96978	0.19025
806.14595	0.18984
806.3221	0.19076
806.49824	0.19156
806.67436	0.19033
806.85046	0.19047
807.02654	0.1909
807.20261	0.19251
807.37866	0.19292
807.55469	0.19272
807.73071	0.19451
807.90671	0.19307
808.08269	0.19608
808.25866	0.19544
808.43461	0.19534
808.61054	0.19606
808.78645	0.19581
808.96235	0.19485
809.13823	0.19732
809.3141	0.1962
809.48995	0.19564
809.66578	0.19774
809.84159	0.19784
810.01739	0.19834
810.19317	0.19687
810.36893	0.19879
810.54468	0.1978
810.7204	0.19931
810.89612	0.19968
811.07181	0.19775
811.24749	0.20022
811.42315	0.20099
811.5988	0.1999
811.77442	0.20031
811.95003	0.20157
812.12563	0.2005
812.3012	0.20219
812.47676	0.20205
812.65231	0.20317
812.82783	0.20474
813.00334	0.20456
813.17883	0.20315
813.35431	0.20419
813.52976	0.20345
813.70521	0.20502
813.88063	0.20338
814.05604	0.20565
814.23143	0.20584
814.4068	0.206
814.58215	0.20643
814.75749	0.20673
814.93281	0.20715
815.10812	0.20745
815.28341	0.20709
815.45868	0.20765
815.63393	0.20789
815.80917	0.20801
815.98439	0.21023
816.15959	0.20916
816.33478	0.2093
816.50995	0.2108
816.6851	0.21055
816.86023	0.21009
817.03535	0.21139
817.21045	0.21141
817.38553	0.211
817.5606	0.21258
817.73565	0.2112
817.91068	0.21243
818.0857	0.21228
818.2607	0.21433
818.43568	0.21245
818.61064	0.21358
818.78559	0.21384
818.96052	0.21454
819.13543	0.21668
819.31033	0.21373
819.48521	0.21702
819.66007	0.21506
819.83491	0.21727
820.00974	0.21734
820.18455	0.21476
820.35935	0.21842
820.53412	0.21864
820.70888	0.21826
820.88362	0.21754
821.05835	0.21872
821.23306	0.2196
821.40775	0.22058
821.58242	0.22089
821.75708	0.22108
821.93172	0.22198
822.10634	0.22292
822.28095	0.22055
822.45554	0.22402
822.63011	0.22175
822.80466	0.22481
822.9792	0.22276
823.15372	0.22481
823.32822	0.22248
823.50271	0.22406
823.67718	0.22462
823.85163	0.22446
824.02606	0.22358
824.20048	0.2261
824.37488	0.22597
824.54926	0.22536
824.72363	0.22582
824.89798	0.22756
825.07231	0.22606
825.24663	0.22725
825.42092	0.22808
825.5952	0.2265
825.76947	0.22767
825.94371	0.22872
826.11794	0.22902
826.29215	0.22933
826.46635	0.22753
826.64052	0.22796
826.81468	0.22904
826.98883	0.22978
827.16295	0.23111
827.33706	0.23214
827.51115	0.23096
827.68523	0.23019
827.85928	0.2306
828.03332	0.23247
828.20735	0.23144
828.38135	0.23069
828.55534	0.23017
828.72931	0.23182
828.90327	0.23178
829.0772	0.23232
829.25112	0.23457
829.42502	0.23252
829.59891	0.23416
829.77278	0.2343
829.94663	0.23407
830.12046	0.23461
830.29428	0.23384
830.46808	0.2351
830.64186	0.2358
830.81562	0.23598
830.98937	0.23705
831.1631	0.23658
831.33681	0.23587
831.51051	0.23728
831.68419	0.2378
831.85785	0.23914
832.03149	0.23873
832.20512	0.23856
832.37873	0.23963
832.55232	0.23911
832.72589	0.23875
832.89945	0.23982
833.07299	0.24023
833.24652	0.24128
833.42002	0.23957
833.59351	0.24153
833.76698	0.24288
833.94044	0.24037
834.11387	0.24179
834.28729	0.24103
834.46069	0.24138
834.63408	0.24284
834.80745	0.24147
834.9808	0.24406
835.15413	0.24331
835.32745	0.24345
835.50075	0.24173
835.67403	0.24383
835.84729	0.24414
836.02054	0.24445
836.19377	0.24631
836.36698	0.24656
836.54017	0.24643
836.71335	0.24395
836.88651	0.24646
837.05965	0.24635
837.23278	0.24817
837.40589	0.24696
837.57898	0.24716
837.75205	0.24761
837.92511	0.24679
838.09815	0.24834
838.27117	0.24751
838.44417	0.24865
838.61716	0.24863
838.79013	0.25004
838.96308	0.25146
839.13602	0.24969
839.30893	0.24988
839.48183	0.24921
839.65472	0.24991
839.82758	0.25038
840.00043	0.24995
840.17326	0.25295
840.34607	0.25099
840.51887	0.25256
840.69165	0.25063
840.86441	0.25321
841.03715	0.2527
841.20988	0.2541
841.38259	0.25276
841.55528	0.25288
841.72795	0.25588
841.90061	0.25369
842.07325	0.25551
842.24587	0.25366
842.41848	0.25466
842.59107	0.25533
842.76364	0.25805
842.93619	0.25721
843.10872	0.25866
843.28124	0.25597
843.45374	0.25305
843.62623	0.25753
843.79869	0.25666
843.97114	0.25685
844.14357	0.25868
844.31598	0.25884
844.48838	0.25839
844.66076	0.25959
844.83312	0.25889
845.00546	0.25805
845.17779	0.25953
845.3501	0.26041
845.52239	0.26048
845.69466	0.26182
845.86692	0.25898
846.03916	0.2606
846.21138	0.25872
846.38358	0.26113
846.55577	0.26159
846.72794	0.26146
846.90009	0.26149
847.07223	0.26333
847.24434	0.26098
847.41644	0.26252
847.58852	0.26165
847.76059	0.2647
847.93263	0.26434
848.10466	0.26389
848.27668	0.26217
848.44867	0.26377
848.62065	0.2625
848.79261	0.26474
848.96455	0.26277
849.13647	0.26301
849.30838	0.26578
849.48027	0.265
849.65214	0.26679
849.824	0.26588
849.99583	0.26693
850.16765	0.26809
850.33946	0.26762
850.51124	0.26774
850.68301	0.26582
850.85476	0.26829
851.02649	0.26638
851.1982	0.26662
851.3699	0.26817
851.54158	0.26764
851.71324	0.26687
851.88489	0.26743
852.05651	0.26851
852.22812	0.26965
852.39971	0.27019
852.57129	0.26598
852.74285	0.26982
852.91438	0.26986
853.08591	0.2694
853.25741	0.26915
853.4289	0.271
853.60037	0.27199
853.77182	0.26781
853.94325	0.27165
854.11467	0.27093
854.28607	0.27015
854.45745	0.27109
854.62881	0.27163
854.80016	0.27178
854.97149	0.27273
855.1428	0.2719
855.31409	0.27255
855.48537	0.27133
855.65662	0.274
855.82786	0.27392
855.99909	0.27415
856.17029	0.27364
856.34148	0.27387
856.51265	0.27671
856.6838	0.27504
856.85494	0.27414
857.02606	0.27465
857.19716	0.27353
857.36824	0.27504
857.5393	0.27444
857.71035	0.27359
857.88138	0.27509
858.05239	0.27767
858.22338	0.27829
858.39436	0.27506
858.56532	0.27709
858.73626	0.27888
858.90718	0.27921
859.07809	0.27981
859.24898	0.27856
859.41985	0.27875
859.5907	0.27909
859.76154	0.27859
859.93236	0.27878
860.10316	0.27806
860.27394	0.28088
860.4447	0.27648
860.61545	0.27887
860.78618	0.28089
860.95689	0.27975
861.12759	0.28052
861.29826	0.27963
861.46892	0.27903
861.63956	0.27944
861.81019	0.27922
861.98079	0.28181
862.15138	0.28335
862.32195	0.28216
862.4925	0.2816
862.66304	0.28015
862.83356	0.28295
863.00405	0.2813
863.17454	0.28187
863.345	0.28316
863.51545	0.28348
863.68588	0.28465
863.85629	0.28396
864.02668	0.283
864.19706	0.2851
864.36742	0.28422
864.53776	0.28504
864.70808	0.28338
864.87838	0.28401
865.04867	0.28522
865.21894	0.28641
865.38919	0.28476
865.55943	0.2838
865.72964	0.28428
865.89984	0.2842
866.07002	0.28391
866.24018	0.2888
866.41033	0.28681
866.58046	0.28528
866.75057	0.28815
866.92066	0.28657
867.09073	0.28644
867.26079	0.28588
867.43083	0.28663
867.60085	0.28608
867.77085	0.28832
867.94084	0.28848
868.11081	0.28692
868.28076	0.28797
868.45069	0.28975
868.6206	0.28664
868.7905	0.29067
868.96038	0.28933
869.13024	0.28984
869.30008	0.28831
869.46991	0.28996
869.63972	0.29213
869.80951	0.28862
869.97928	0.29059
870.14903	0.29018
870.31877	0.28983
870.48849	0.2927
870.65819	0.29015
870.82787	0.2887
870.99754	0.29088
871.16719	0.29351
871.33682	0.28944
871.50643	0.28964
871.67602	0.29193
871.8456	0.29026
872.01516	0.29065
872.1847	0.29305
872.35422	0.29236
872.52373	0.29294
872.69321	0.29291
872.86268	0.29534
873.03213	0.29308
873.20157	0.28948
873.37098	0.29469
873.54038	0.29168
873.70976	0.29225
873.87912	0.29379
874.04847	0.29295
874.21779	0.29283
874.3871	0.29364
874.55639	0.29243
874.72567	0.29638
874.89492	0.29562
875.06416	0.29594
875.23338	0.29664
875.40258	0.2962
875.57176	0.2956
875.74093	0.29153
875.91008	0.29493
876.07921	0.29736
876.24832	0.2931
876.41741	0.29695
876.58649	0.29615
876.75555	0.29809
876.92459	0.29512
877.09361	0.29716
877.26262	0.29204
877.4316	0.29683
877.60057	0.29823
877.76952	0.29843
877.93846	0.29738
878.10737	0.29374
878.27627	0.3012
878.44515	0.30021
878.61401	0.29869
878.78285	0.29794
878.95168	0.30045
879.12049	0.30231
879.28928	0.29683
879.45805	0.29788
879.6268	0.30216
879.79554	0.29851
879.96426	0.30278
880.13296	0.2999
880.30164	0.30097
880.4703	0.29614
880.63895	0.3018
880.80758	0.30437
880.97619	0.30368
881.14478	0.30206
881.31335	0.30014
881.48191	0.29956
881.65045	0.29906
881.81897	0.30216
881.98747	0.29956
882.15596	0.30106
882.32442	0.3026
882.49287	0.30202
882.6613	0.30296
882.82972	0.29796
882.99811	0.30081
883.16649	0.30288
883.33485	0.30366
883.50319	0.29826
883.67151	0.30122
883.83981	0.30358
884.0081	0.30499
884.17637	0.30298
884.34462	0.30591
884.51285	0.3028
884.68107	0.30135
884.84926	0.30555
885.01744	0.3015
885.1856	0.30442
885.35375	0.303
885.52187	0.30363
885.68998	0.30253
885.85807	0.30559
886.02614	0.30744
886.19419	0.30866
886.36222	0.30441
886.53024	0.30377
886.69824	0.30346
886.86622	0.30363
887.03418	0.30727
887.20212	0.30784
887.37005	0.30642
887.53796	0.30308
887.70585	0.30259
887.87372	0.30864
888.04157	0.30642
888.20941	0.30505
888.37723	0.30477
888.54503	0.30872
888.71281	0.30592
888.88057	0.30517
889.04832	0.30419
889.21605	0.30514
889.38376	0.30581
