Data from Absorbance__4__13-25-33-400.txt Node

Date: Sat Aug 24 13:25:33 CDT 2024
User: jcb200005
Spectrometer: USB4H00496
Trigger mode: 4
Integration Time (sec): 5.700000E-2
Scans to average: 25
Electric dark correction enabled: true
Nonlinearity correction enabled: false
Boxcar width: 0
XAxis mode: Wavelengths
Number of Pixels in Spectrum: 3648
>>>>>Begin Spectral Data<<<<<
177.67838	0.92527
177.89545	0.92527
178.1125	0.92527
178.32955	0.68998
178.54659	-0.27303
178.76362	-0
178.98064	0.21737
179.19766	0.61393
179.41466	-0.5455
179.63165	0.40819
179.84864	-0
180.06561	0.60518
180.28258	0.08356
180.49954	-1.51774
180.71649	-0.19548
180.93343	-1.89275
181.15036	-0
181.36728	-0.65517
181.5842	0.24162
181.8011	0.7269
182.01799	0.45474
182.23488	0.77775
182.45176	0.48119
182.66862	0.73651
182.88548	1.05212
183.10233	-0
183.31917	-0
183.53601	0.78227
183.75283	1.17127
183.96964	0.63603
184.18645	0.99863
184.40324	-0
184.62003	-0
184.83681	1.41683
185.05357	0.68325
185.27033	0.67379
185.48708	-0
185.70382	0.77279
185.92056	1.14618
186.13728	0.67076
186.35399	0.81831
186.5707	0.59871
186.78739	0.83493
187.00408	0.5746
187.22076	0.85291
187.43742	-0
187.65408	-0
187.87073	0.48583
188.08737	0.95906
188.30401	-0
188.52063	0.67239
188.73724	0.96009
188.95385	0.54628
189.17044	0.75745
189.38703	-0
189.6036	1.42058
189.82017	-0
190.03673	0.70476
190.25328	1.12384
190.46982	1.40112
190.68635	0.62204
190.90287	-0
191.11939	-0
191.33589	0.67959
191.55239	0.95177
191.76887	-0
191.98535	1.2689
192.20182	0.81521
192.41827	-0
192.63472	0.96614
192.85116	1.6873
193.06759	1.28589
193.28401	1.09929
193.50043	0.8921
193.71683	1.81543
193.93322	-0
194.14961	2.3843
194.36598	1.272
194.58235	1.03338
194.79871	0.88476
195.01506	1.16481
195.23139	3.43602
195.44772	1.34522
195.66404	1.03898
195.88036	1.84895
196.09666	0.98546
196.31295	-0
196.52923	1.57172
196.74551	1.02391
196.96177	1.42618
197.17803	1.08608
197.39428	1.085
197.61051	1.13803
197.82674	1.3226
198.04296	1.24562
198.25917	0.99242
198.47537	0.92408
198.69156	2.13139
198.90775	1.391
199.12392	1.14683
199.34008	1.18954
199.55624	1.7819
199.77238	1.90093
199.98852	1.11352
200.20465	1.10587
200.42076	1.68633
200.63687	-0
200.85297	3.12602
201.06906	1.39859
201.28514	1.12848
201.50121	1.82689
201.71727	-0
201.93333	1.44702
202.14937	-0
202.3654	1.41437
202.58143	1.72271
202.79744	1.25572
203.01345	1.40299
203.22945	-0
203.44544	-0
203.66141	1.46966
203.87738	-0
204.09334	1.25058
204.30929	2.24201
204.52523	1.13901
204.74117	1.31992
204.95709	1.40768
205.173	2.73673
205.38891	2.09081
205.6048	1.5258
205.82069	1.64369
206.03656	1.54491
206.25243	2.03353
206.46829	1.83547
206.68413	1.41738
206.89997	3.57441
207.1158	1.40556
207.33162	1.62982
207.54743	-0
207.76324	1.67018
207.97903	-0
208.19481	1.34217
208.41058	2.22895
208.62635	1.47053
208.8421	1.48408
209.05785	-0
209.27358	-0
209.48931	1.27414
209.70503	1.56362
209.92074	2.25827
210.13643	-0
210.35212	-0
210.5678	1.79032
210.78347	1.49571
210.99914	1.8677
211.21479	1.79101
211.43043	-0
211.64606	-0
211.86169	1.84192
212.0773	2.45971
212.29291	2.1562
212.5085	1.7016
212.72409	1.91766
212.93966	1.71945
213.15523	2.03616
213.37079	1.9746
213.58634	-0
213.80188	2.11651
214.01741	1.55632
214.23293	1.52279
214.44844	1.81382
214.66394	1.55611
214.87943	1.826
215.09491	1.91563
215.31039	1.52864
215.52585	-0
215.7413	2.69712
215.95675	2.25584
216.17218	2.00468
216.38761	1.98309
216.60303	2.17281
216.81843	1.88364
217.03383	1.91469
217.24922	2.1153
217.4646	1.94426
217.67997	1.89583
217.89533	2.0752
218.11068	2.40933
218.32602	2.03806
218.54135	-0
218.75667	-0
218.97198	2.43274
219.18729	1.90571
219.40258	1.83412
219.61787	-0
219.83314	2.73409
220.04841	-0
220.26366	1.89704
220.47891	1.83539
220.69414	1.89734
220.90937	1.95906
221.12459	2.03608
221.3398	1.90901
221.555	2.18866
221.77019	2.01925
221.98536	2.02383
222.20054	1.95446
222.4157	-0
222.63085	2.18691
222.84599	1.80439
223.06112	3.63862
223.27624	-0
223.49136	2.14941
223.70646	2.25674
223.92155	2.29189
224.13664	-0
224.35171	2.29238
224.56678	2.23546
224.78184	3.3879
224.99688	3.79136
225.21192	2.21694
225.42695	2.17551
225.64196	2.04909
225.85697	2.79066
226.07197	2.94254
226.28696	2.28603
226.50194	2.06887
226.71691	2.36824
226.93187	3.96109
227.14682	2.04098
227.36176	-0
227.5767	2.65015
227.79162	2.49015
228.00653	3.12723
228.22143	2.17937
228.43633	2.13859
228.65121	2.83354
228.86609	-0
229.08095	2.83279
229.29581	2.71445
229.51065	2.27842
229.72549	2.31432
229.94031	2.28334
230.15513	2.36986
230.36994	2.27418
230.58474	2.43578
230.79952	2.5892
231.0143	2.41999
231.22907	2.50806
231.44383	-0
231.65858	2.60745
231.87332	3.13827
232.08805	2.37082
232.30277	-0
232.51748	2.53358
232.73218	3.12383
232.94688	3.05696
233.16156	-0
233.37623	3.03588
233.59089	4.28308
233.80555	3.04974
234.02019	3.40658
234.23483	2.26582
234.44945	3.09672
234.66406	2.31962
234.87867	2.36953
235.09327	2.62454
235.30785	2.59029
235.52243	2.47195
235.73699	2.4448
235.95155	2.44668
236.1661	2.42151
236.38064	2.32421
236.59516	2.50174
236.80968	2.31192
237.02419	2.83679
237.23869	2.7603
237.45318	3.0786
237.66766	2.40406
237.88213	2.95626
238.09659	-0
238.31104	3.734
238.52548	2.88976
238.73991	2.60823
238.95433	2.26601
239.16874	-0
239.38314	-0
239.59754	2.80217
239.81192	3.10194
240.02629	2.51745
240.24066	2.45589
240.45501	-0
240.66935	3.55006
240.88369	2.18608
241.09801	2.45383
241.31232	3.16538
241.52663	2.54366
241.74092	2.66453
241.95521	3.60995
242.16949	2.55489
242.38375	3.05084
242.59801	3.03269
242.81225	2.39263
243.02649	-0
243.24072	-0
243.45493	2.51273
243.66914	2.79078
243.88334	3.1815
244.09753	-0
244.31171	-0
244.52587	2.56872
244.74003	3.0335
244.95418	2.59014
245.16832	2.50175
245.38245	2.64739
245.59657	3.64226
245.81068	-0
246.02478	2.96159
246.23887	2.62505
246.45295	-0
246.66702	2.69367
246.88108	2.62206
247.09513	2.77653
247.30917	3.90423
247.5232	3.05341
247.73722	-0
247.95124	2.81791
248.16524	2.77586
248.37923	2.64382
248.59321	2.7413
248.80719	2.4283
249.02115	2.7508
249.2351	2.68651
249.44904	-0
249.66298	3.30957
249.8769	2.32477
250.09081	3.02106
250.30472	-0
250.51861	2.39036
250.7325	-0
250.94637	2.62296
251.16024	3.5373
251.37409	2.66813
251.58793	2.60821
251.80177	3.06951
252.01559	3.02811
252.22941	2.74227
252.44322	2.57444
252.65701	-0
252.8708	-0
253.08457	3.17875
253.29834	-0
253.51209	2.94597
253.72584	2.67281
253.93958	2.51468
254.1533	3.06041
254.36702	3.24867
254.58073	2.78911
254.79442	4.44809
255.00811	3.05334
255.22179	3.06584
255.43545	3.08625
255.64911	2.6705
255.86276	2.74758
256.0764	3.15792
256.29002	-0
256.50364	2.66092
256.71725	2.86195
256.93085	2.56831
257.14443	3.01374
257.35801	3.33914
257.57158	2.67665
257.78514	2.44506
257.99869	3.2564
258.21223	2.92036
258.42575	3.54204
258.63927	2.775
258.85278	2.55488
259.06628	2.81549
259.27977	3.28127
259.49325	-0
259.70672	2.71437
259.92017	3.17289
260.13362	-0
260.34706	2.58757
260.56049	2.72854
260.77391	2.57932
260.98732	3.22002
261.20072	2.6778
261.41411	3.58551
261.62749	3.03836
261.84086	3.83211
262.05422	3.91813
262.26757	-0
262.4809	2.85491
262.69423	2.88428
262.90755	-0
263.12086	2.91602
263.33416	2.9879
263.54745	3.60639
263.76073	3.59443
263.974	2.77084
264.18726	3.16962
264.40051	3.15053
264.61375	2.70112
264.82698	3.11234
265.0402	-0
265.25341	2.7872
265.46661	2.69635
265.6798	2.80633
265.89298	2.65221
266.10615	-0
266.31931	3.4422
266.53245	-0
266.74559	3.08474
266.95872	-0
267.17184	2.76215
267.38495	2.96612
267.59805	3.11624
267.81114	2.78242
268.02422	-0
268.23729	3.03909
268.45035	3.37593
268.6634	-0
268.87644	3.03752
269.08947	2.73538
269.30248	2.87595
269.51549	-0
269.72849	3.00392
269.94148	3.66397
270.15446	2.81743
270.36743	3.24949
270.58039	2.71175
270.79334	2.97361
271.00627	2.84089
271.2192	2.79488
271.43212	-0
271.64503	2.74166
271.85793	3.52126
272.07081	2.84358
272.28369	-0
272.49656	-0
272.70942	4.10832
272.92227	2.87292
273.1351	2.87601
273.34793	2.79431
273.56075	3.37886
273.77356	3.04519
273.98635	2.4438
274.19914	3.51326
274.41192	2.97423
274.62468	2.98986
274.83744	3.0714
275.05019	2.82398
275.26292	2.90047
275.47565	4.12461
275.68837	2.73613
275.90107	3.20293
276.11377	3.12751
276.32645	3.05813
276.53913	3.92183
276.7518	-0
276.96445	-0
277.1771	3.89482
277.38973	3.0377
277.60236	2.8945
277.81497	3.00017
278.02758	3.31377
278.24017	3.4342
278.45276	3.18091
278.66533	2.7006
278.87789	2.94687
279.09045	3.21272
279.30299	2.93317
279.51552	3.55645
279.72805	-0
279.94056	-0
280.15306	-0
280.36556	2.83269
280.57804	2.71742
280.79051	3.04789
281.00297	3.63612
281.21543	2.73862
281.42787	3.48041
281.6403	3.61096
281.85272	3.14356
282.06513	2.94306
282.27753	3.49419
282.48992	2.66188
282.70231	3.15253
282.91468	2.84514
283.12704	-0
283.33939	-0
283.55173	-0
283.76406	2.73659
283.97638	-0
284.18868	2.81874
284.40098	2.83958
284.61327	2.41822
284.82555	2.5544
285.03782	3.70901
285.25008	2.78187
285.46232	3.48821
285.67456	-0
285.88679	2.71846
286.09901	-0
286.31121	2.96706
286.52341	2.75478
286.7356	2.6559
286.94777	3.15993
287.15994	3.63448
287.37209	2.66017
287.58424	3.45128
287.79637	2.8228
288.0085	-0
288.22061	3.02124
288.43272	-0
288.64481	3.11456
288.85689	4.15325
289.06897	2.86849
289.28103	-0
289.49308	3.40098
289.70512	2.61868
289.91716	3.24611
290.12918	2.95564
290.34119	2.71786
290.55319	3.73093
290.76518	4.03864
290.97716	2.9203
291.18913	2.75641
291.40109	3.10948
291.61304	2.86811
291.82498	3.58011
292.03691	3.04474
292.24883	2.64277
292.46074	2.5168
292.67264	3.07965
292.88452	3.0242
293.0964	2.92781
293.30827	-0
293.52013	3.3181
293.73197	2.73105
293.94381	3.18361
294.15563	2.86932
294.36745	2.79538
294.57925	2.71763
294.79105	2.70147
295.00283	3.0803
295.21461	2.89294
295.42637	3.12711
295.63812	3.019
295.84987	3.89611
296.0616	3.28089
296.27332	-0
296.48503	4.71691
296.69673	-0
296.90843	2.77749
297.12011	2.73714
297.33178	2.82397
297.54344	2.9352
297.75509	2.53814
297.96672	2.6692
298.17835	3.38309
298.38997	3.00504
298.60158	-0
298.81318	-0
299.02476	3.15661
299.23634	3.39716
299.44791	3.00204
299.65946	2.79575
299.87101	2.46469
300.08254	3.02879
300.29407	-0
300.50558	3.28488
300.71709	-0
300.92858	2.78294
301.14006	-0
301.35154	-0
301.563	2.82448
301.77445	2.77963
301.98589	-0
302.19732	2.84174
302.40874	3.36359
302.62015	2.71276
302.83155	3.25158
303.04294	-0
303.25432	3.43912
303.46569	3.24698
303.67704	-0
303.88839	2.85072
304.09973	3.00203
304.31106	2.77643
304.52237	3.25939
304.73368	3.1689
304.94497	2.85686
305.15626	-0
305.36753	-0
305.57879	3.19181
305.79005	3.03703
306.00129	3.00251
306.21252	5.33232
306.42374	3.30207
306.63495	2.70925
306.84615	2.62479
307.05734	2.85256
307.26852	3.56122
307.47969	-0
307.69085	3.50252
307.902	2.73702
308.11314	2.86101
308.32426	-0
308.53538	2.94758
308.74649	2.54447
308.95758	-0
309.16867	-0
309.37974	2.99884
309.59081	2.75783
309.80186	2.75391
310.0129	2.68921
310.22393	2.78209
310.43496	-0
310.64597	2.65082
310.85697	3.08805
311.06796	2.93869
311.27894	3.16962
311.48991	3.20077
311.70086	3.03869
311.91181	2.67661
312.12275	2.97209
312.33368	2.84299
312.54459	2.8157
312.7555	2.88231
312.96639	3.3702
313.17728	3.53921
313.38815	2.87725
313.59902	-0
313.80987	3.35855
314.02071	3.14904
314.23154	3.12289
314.44236	2.57825
314.65318	3.3995
314.86398	3.42973
315.07476	2.60191
315.28554	3.11079
315.49631	2.71513
315.70707	2.97493
315.91782	3.13672
316.12855	-0
316.33928	2.82586
316.54999	3.57076
316.7607	2.53227
316.97139	2.77617
317.18208	2.76941
317.39275	2.64124
317.60341	2.78384
317.81406	3.2843
318.0247	3.36967
318.23533	2.72815
318.44595	-0
318.65656	2.86232
318.86716	2.72347
319.07775	2.98046
319.28833	2.66691
319.49889	-0
319.70945	-0
319.91999	2.807
320.13053	2.49634
320.34105	3.33317
320.55156	2.96944
320.76207	3.4651
320.97256	2.74317
321.18304	3.99145
321.39351	2.57419
321.60397	2.45766
321.81442	2.96322
322.02486	3.1564
322.23529	2.74243
322.4457	3.21813
322.65611	3.50039
322.86651	2.49793
323.07689	2.76754
323.28726	2.91458
323.49763	2.95973
323.70798	-0
323.91832	4.44212
324.12866	2.74626
324.33898	3.08392
324.54929	-0
324.75959	3.00795
324.96988	2.77883
325.18015	4.36572
325.39042	2.56319
325.60068	3.1225
325.81092	2.90609
326.02116	2.66044
326.23138	2.87621
326.4416	3.5592
326.6518	2.88576
326.86199	-0
327.07217	2.72307
327.28235	-0
327.49251	4.07509
327.70265	3.06891
327.91279	-0
328.12292	3.01664
328.33304	2.74494
328.54315	3.92238
328.75324	2.49343
328.96333	-0
329.1734	2.6619
329.38346	-0
329.59352	2.91611
329.80356	2.85287
330.01359	2.89711
330.22361	-0
330.43362	3.56024
330.64362	3.01179
330.85361	-0
331.06358	4.16418
331.27355	-0
331.48351	-0
331.69345	3.61797
331.90338	3.54247
332.11331	2.84011
332.32322	2.56874
332.53312	4.87084
332.74301	2.64386
332.95289	2.77233
333.16276	2.70154
333.37262	3.32789
333.58247	2.91011
333.79231	-0
334.00213	4.02399
334.21195	2.95281
334.42175	2.51408
334.63155	2.54166
334.84133	2.97649
335.0511	3.0226
335.26086	2.88266
335.47061	2.86924
335.68035	2.75199
335.89008	3.07653
336.0998	3.6502
336.3095	2.85364
336.5192	2.4684
336.72889	3.17875
336.93856	-0
337.14822	2.70769
337.35788	2.64156
337.56752	2.4689
337.77715	2.84207
337.98677	2.86759
338.19638	3.05977
338.40598	2.53328
338.61556	2.88113
338.82514	2.90552
339.03471	3.03313
339.24426	-0
339.45381	2.73625
339.66334	2.77696
339.87286	2.69071
340.08237	2.5464
340.29187	3.45988
340.50136	2.9876
340.71084	2.76095
340.92031	2.562
341.12977	2.53065
341.33921	-0
341.54865	2.72124
341.75807	3.36255
341.96749	2.73232
342.17689	3.22331
342.38628	2.88092
342.59566	2.49233
342.80503	3.04679
343.01439	3.4442
343.22374	3.25474
343.43307	2.61573
343.6424	3.17502
343.85171	2.86995
344.06102	2.84718
344.27031	2.308
344.47959	2.6378
344.68886	3.11105
344.89813	2.83455
345.10737	2.84108
345.31661	2.74623
345.52584	-0
345.73506	2.57669
345.94426	2.59465
346.15346	3.15493
346.36264	3.20371
346.57181	2.52026
346.78098	3.15059
346.99013	2.62685
347.19927	3.26116
347.40839	2.72913
347.61751	4.11032
347.82662	2.76324
348.03571	2.63192
348.2448	2.69761
348.45387	2.72543
348.66294	2.61447
348.87199	3.04282
349.08103	2.64314
349.29006	3.06034
349.49908	2.51013
349.70809	-0
349.91708	2.53797
350.12607	-0
350.33504	3.64099
350.54401	2.64111
350.75296	3.22903
350.9619	2.64017
351.17083	2.46577
351.37975	2.99107
351.58866	3.54478
351.79756	2.90501
352.00645	2.72768
352.21532	2.61063
352.42419	-0
352.63304	3.73078
352.84188	-0
353.05071	2.91683
353.25954	2.93633
353.46834	2.44553
353.67714	3.04238
353.88593	3.05936
354.09471	2.8384
354.30347	2.88511
354.51223	2.77778
354.72097	2.86809
354.9297	2.55178
355.13842	2.85234
355.34713	2.8544
355.55583	2.87222
355.76452	2.56563
355.9732	2.7887
356.18186	2.99988
356.39052	-0
356.59916	2.73811
356.80779	-0
357.01641	-0
357.22502	2.53122
357.43362	-0
357.64221	2.69355
357.85079	2.67853
358.05935	4.34039
358.26791	2.48802
358.47645	2.63623
358.68498	2.6297
358.89351	3.28204
359.10202	3.07587
359.31052	3.06941
359.519	3.07188
359.72748	2.90855
359.93595	2.46629
360.1444	-0
360.35284	2.58336
360.56128	2.80516
360.7697	3.03598
360.97811	-0
361.18651	3.02622
361.3949	2.5015
361.60327	3.03004
361.81164	2.8033
362.01999	3.34237
362.22834	-0
362.43667	-0
362.64499	2.70971
362.8533	2.42898
363.0616	2.85447
363.26988	2.51748
363.47816	3.27545
363.68643	2.81667
363.89468	3.45889
364.10292	2.52555
364.31115	3.43275
364.51937	2.66644
364.72758	3.49503
364.93578	2.78391
365.14397	4.18448
365.35214	2.89018
365.56031	2.55872
365.76846	-0
365.9766	3.18282
366.18474	2.95267
366.39286	3.32184
366.60096	-0
366.80906	2.44652
367.01715	2.75231
367.22522	2.83653
367.43329	3.01302
367.64134	3.28887
367.84938	2.41215
368.05741	2.72736
368.26543	2.58182
368.47344	2.81983
368.68143	3.08441
368.88942	2.73824
369.09739	3.00187
369.30535	4.25444
369.51331	3.3936
369.72125	2.68787
369.92918	3.62829
370.13709	3.31539
370.345	2.58448
370.55289	3.13791
370.76078	2.74647
370.96865	3.54007
371.17651	2.67234
371.38436	2.67145
371.5922	2.78225
371.80003	2.86557
372.00785	4.17509
372.21565	3.42625
372.42344	-0
372.63123	3.21765
372.839	3.93378
373.04676	2.6998
373.25451	2.97636
373.46224	2.88244
373.66997	-0
373.87769	2.88377
374.08539	2.64006
374.29308	2.60638
374.50076	3.63759
374.70843	-0
374.91609	2.85641
375.12374	2.90333
375.33137	2.48751
375.539	-0
375.74661	3.13445
375.95421	4.2419
376.1618	-0
376.36938	3.08629
376.57695	2.68601
376.78451	2.48799
376.99205	3.0807
377.19959	2.77763
377.40711	2.68711
377.61462	2.60933
377.82212	2.78998
378.02961	-0
378.23709	4.1721
378.44455	3.02896
378.65201	2.62199
378.85945	2.60666
379.06688	2.46738
379.2743	2.56928
379.48171	2.8869
379.68911	2.74868
379.89649	2.86919
380.10387	2.77161
380.31123	-0
380.51859	3.03254
380.72593	2.90193
380.93326	2.61478
381.14057	2.63786
381.34788	-0
381.55518	2.47032
381.76246	-0
381.96973	-0
382.17699	3.06184
382.38424	2.91246
382.59148	2.83046
382.79871	3.01121
383.00592	-0
383.21313	3.24323
383.42032	2.48815
383.6275	2.70327
383.83467	2.45403
384.04183	2.68143
384.24898	2.72588
384.45611	2.69484
384.66324	2.57099
384.87035	2.60836
385.07745	2.96696
385.28454	3.0546
385.49162	-0
385.69869	2.62947
385.90575	2.7791
386.11279	2.505
386.31982	2.56165
386.52684	2.69814
386.73385	3.43533
386.94085	2.69943
387.14784	3.10377
387.35482	2.52559
387.56178	3.23757
387.76873	-0
387.97567	2.71202
388.1826	2.69572
388.38952	2.91664
388.59643	-0
388.80332	2.86496
389.01021	-0
389.21708	2.62648
389.42394	2.69861
389.63079	3.00832
389.83763	2.94504
390.04446	2.46364
390.25127	2.72929
390.45807	-0
390.66487	2.47968
390.87165	2.93758
391.07842	3.59429
391.28517	2.86892
391.49192	2.87406
391.69865	2.45192
391.90538	2.84457
392.11209	2.7511
392.31879	2.76105
392.52548	2.61405
392.73215	2.92977
392.93882	2.96758
393.14547	2.64931
393.35212	-0
393.55875	3.19849
393.76537	2.67841
393.97197	2.78059
394.17857	2.7813
394.38516	2.7822
394.59173	2.9574
394.79829	2.54572
395.00484	2.60916
395.21138	2.41482
395.41791	2.57308
395.62442	2.57696
395.83093	-0
396.03742	2.73865
396.2439	3.08016
396.45037	-0
396.65683	3.0485
396.86327	2.38726
397.06971	3.6668
397.27613	2.79252
397.48254	3.14282
397.68894	2.46592
397.89533	2.79883
398.10171	-0
398.30807	-0
398.51442	2.76473
398.72077	2.45678
398.9271	2.77459
399.13342	2.92719
399.33972	2.57782
399.54602	3.35728
399.7523	3.57374
399.95857	2.62428
400.16484	-0
400.37108	3.67345
400.57732	2.52131
400.78355	3.51011
400.98976	3.71999
401.19597	-0
401.40216	2.36481
401.60834	3.18737
401.8145	3.69255
402.02066	2.94989
402.2268	2.51679
402.43294	2.55805
402.63906	2.56416
402.84517	2.49902
403.05127	-0
403.25735	2.59044
403.46343	3.03746
403.66949	2.43289
403.87554	2.46428
404.08158	-0
404.28761	2.82072
404.49363	2.82761
404.69963	3.00215
404.90562	3.45304
405.1116	2.95331
405.31757	-0
405.52353	2.48263
405.72948	-0
405.93541	2.32178
406.14134	-0
406.34725	2.48698
406.55315	2.93502
406.75904	3.34807
406.96491	2.68161
407.17078	-0
407.37663	2.88171
407.58247	2.62553
407.7883	2.62366
407.99412	2.393
408.19992	3.14907
408.40572	-0
408.6115	2.27269
408.81727	2.60902
409.02303	2.68831
409.22878	2.67629
409.43452	2.85258
409.64024	2.80586
409.84595	3.44124
410.05165	2.58203
410.25734	2.65837
410.46302	2.65709
410.66868	2.81387
410.87434	2.79247
411.07998	2.60743
411.28561	2.77671
411.49123	2.51935
411.69684	2.78489
411.90243	4.51408
412.10801	2.77382
412.31359	2.71056
412.51915	2.42759
412.72469	2.56894
412.93023	3.19133
413.13575	2.57113
413.34127	3.06982
413.54677	2.64432
413.75226	2.56057
413.95773	2.83897
414.1632	-0
414.36865	2.44032
414.5741	3.20728
414.77953	2.96781
414.98494	2.9695
415.19035	2.6005
415.39575	2.69001
415.60113	2.63951
415.8065	2.99673
416.01186	2.81874
416.21721	2.4332
416.42254	2.38205
416.62787	2.62873
416.83318	2.51774
417.03848	2.60417
417.24377	2.91023
417.44905	3.1183
417.65431	2.43817
417.85956	2.59137
418.06481	3.07653
418.27004	2.73007
418.47525	2.43227
418.68046	2.43035
418.88565	2.29963
419.09084	2.31883
419.29601	2.39422
419.50116	2.23462
419.70631	2.61863
419.91145	2.48325
420.11657	2.75501
420.32168	2.43829
420.52678	2.74162
420.73187	2.43169
420.93694	2.90601
421.14201	2.59895
421.34706	2.39925
421.5521	2.72621
421.75713	2.69089
421.96214	2.58648
422.16715	2.80478
422.37214	2.59034
422.57712	2.44757
422.78209	2.41876
422.98705	3.01133
423.19199	2.68492
423.39692	2.34539
423.60185	2.3041
423.80675	2.45269
424.01165	2.26067
424.21654	2.63978
424.42141	2.42272
424.62627	2.27225
424.83112	3.44127
425.03596	2.37097
425.24079	2.61501
425.4456	2.5573
425.6504	2.46969
425.85519	2.93537
426.05997	2.69371
426.26474	2.49005
426.46949	2.45585
426.67423	2.44693
426.87897	2.458
427.08368	2.57561
427.28839	2.96448
427.49309	2.53677
427.69777	2.39726
427.90244	2.23321
428.1071	2.61954
428.31175	2.63306
428.51638	2.35969
428.721	2.59021
428.92561	2.42009
429.13021	2.71979
429.3348	3.03349
429.53938	2.60338
429.74394	2.39571
429.94849	2.72533
430.15303	2.48353
430.35756	2.52224
430.56207	2.87352
430.76658	2.66151
430.97107	2.59608
431.17555	2.56284
431.38002	2.38094
431.58447	2.38971
431.78891	2.28455
431.99335	2.42653
432.19777	2.18933
432.40217	3.20971
432.60657	2.28545
432.81095	3.20625
433.01532	2.52558
433.21968	2.81013
433.42403	2.58429
433.62837	-0
433.83269	2.87661
434.037	2.6455
434.2413	2.30412
434.44559	2.22641
434.64986	2.21507
434.85413	2.59229
435.05838	2.43434
435.26262	2.31695
435.46684	2.36923
435.67106	2.22874
435.87526	2.3343
436.07945	2.67865
436.28363	2.34134
436.4878	2.23327
436.69196	2.28099
436.8961	2.41702
437.10023	2.2983
437.30435	2.8901
437.50846	2.55891
437.71255	3.11038
437.91663	2.599
438.1207	2.52057
438.32476	2.41126
438.52881	2.50722
438.73284	2.37327
438.93686	2.30386
439.14088	2.39777
439.34487	2.48802
439.54886	2.7515
439.75283	2.69079
439.95679	2.1698
440.16074	2.32124
440.36468	2.37871
440.56861	2.61291
440.77252	2.60459
440.97642	2.26178
441.18031	2.42083
441.38419	3.39686
441.58805	2.33113
441.79191	2.23574
441.99575	2.61944
442.19958	2.34666
442.40339	2.29365
442.6072	2.3875
442.81099	2.54687
443.01477	2.06596
443.21854	2.60804
443.42229	2.42929
443.62604	2.54928
443.82977	2.47682
444.03349	2.41543
444.2372	2.66608
444.44089	2.43683
444.64458	2.31588
444.84825	2.47047
445.0519	2.45173
445.25555	2.76673
445.45919	2.21554
445.66281	2.42236
445.86642	2.47425
446.07002	2.39805
446.2736	2.28285
446.47718	2.38493
446.68074	2.24254
446.88429	2.2419
447.08782	2.30161
447.29135	2.42872
447.49486	2.89372
447.69836	2.47536
447.90185	2.43759
448.10533	2.4586
448.30879	2.21766
448.51224	2.49637
448.71568	2.18236
448.91911	2.22563
449.12252	2.62509
449.32593	2.49047
449.52932	2.24483
449.7327	2.20129
449.93606	2.29278
450.13942	2.33055
450.34276	2.78959
450.54609	2.28672
450.74941	2.13726
450.95271	2.25769
451.15601	2.28131
451.35929	2.51108
451.56255	2.92424
451.76581	2.51426
451.96906	2.39206
452.17229	2.34748
452.37551	2.21378
452.57871	2.49615
452.78191	2.25662
452.98509	2.32948
453.18826	2.34466
453.39142	2.39303
453.59457	2.34867
453.7977	2.37697
454.00082	2.60195
454.20393	2.39471
454.40703	2.51734
454.61011	2.22578
454.81319	2.92139
455.01625	2.2746
455.21929	2.39088
455.42233	2.21197
455.62535	2.49608
455.82836	2.3512
456.03136	2.16303
456.23435	2.47696
456.43732	2.56066
456.64029	2.12599
456.84324	2.27527
457.04617	2.34769
457.2491	2.24052
457.45201	2.23119
457.65491	2.74371
457.8578	2.66985
458.06068	2.50105
458.26354	2.27582
458.46639	2.33365
458.66923	2.2886
458.87206	2.32345
459.07487	2.23817
459.27767	2.31043
459.48046	2.59876
459.68324	2.30244
459.886	2.32415
460.08876	2.47894
460.2915	2.21876
460.49422	2.21212
460.69694	2.35895
460.89964	2.68531
461.10233	2.39105
461.30501	2.21432
461.50768	2.31305
461.71033	2.23067
461.91297	2.72691
462.1156	2.51137
462.31822	2.18689
462.52082	2.22402
462.72342	2.70434
462.926	2.19267
463.12856	2.43342
463.33112	2.46985
463.53366	2.33409
463.73619	2.19209
463.93871	2.23605
464.14121	2.21636
464.34371	2.23162
464.54619	2.47848
464.74865	2.27763
464.95111	2.23292
465.15355	2.36003
465.35598	2.41043
465.5584	2.44685
465.76081	2.2847
465.9632	2.39328
466.16558	2.26944
466.36795	2.38432
466.57031	2.23758
466.77265	2.54511
466.97499	2.31072
467.1773	2.33665
467.37961	2.5159
467.58191	2.28711
467.78419	2.31884
467.98646	2.49395
468.18871	2.40849
468.39096	2.17343
468.59319	2.3601
468.79541	2.14612
468.99762	2.29942
469.19981	2.70133
469.402	2.489
469.60417	2.34798
469.80632	2.29551
470.00847	2.29243
470.2106	2.47862
470.41272	2.51109
470.61483	2.18797
470.81692	2.29468
471.01901	2.11892
471.22108	2.19518
471.42313	2.39373
471.62518	2.13351
471.82721	2.37061
472.02923	2.40335
472.23124	2.36292
472.43323	2.35052
472.63522	2.38835
472.83719	2.28814
473.03915	2.41042
473.24109	2.23503
473.44302	2.40179
473.64494	2.33365
473.84685	2.35234
474.04875	2.38437
474.25063	2.35683
474.4525	2.2874
474.65436	2.34192
474.8562	2.20044
475.05804	2.45577
475.25986	2.25725
475.46166	2.53874
475.66346	2.29739
475.86524	2.32789
476.06701	2.45607
476.26877	2.3579
476.47051	2.25696
476.67225	2.41526
476.87397	2.35618
477.07567	2.52404
477.27737	2.25895
477.47905	2.22941
477.68072	2.5158
477.88238	2.37807
478.08402	2.53446
478.28565	2.40199
478.48727	2.24577
478.68888	2.30126
478.89048	2.3868
479.09206	2.43112
479.29363	2.30493
479.49518	2.33753
479.69673	2.41286
479.89826	2.34893
480.09978	2.36259
480.30128	2.29257
480.50278	2.32691
480.70426	2.38136
480.90573	2.70579
481.10718	2.30993
481.30863	2.34153
481.51006	2.56501
481.71147	2.3074
481.91288	2.36419
482.11427	2.20684
482.31565	2.44454
482.51702	2.24261
482.71838	2.28876
482.91972	2.29886
483.12105	2.49334
483.32237	2.31328
483.52367	2.34129
483.72496	2.29697
483.92624	2.34571
484.12751	2.33427
484.32876	2.31141
484.53	2.23319
484.73123	2.4064
484.93245	2.32031
485.13365	2.30687
485.33484	2.21321
485.53602	2.24562
485.73719	2.26674
485.93834	2.2718
486.13948	2.4047
486.34061	2.32072
486.54172	2.28529
486.74282	2.3401
486.94391	2.27901
487.14499	2.27029
487.34605	2.22799
487.54711	2.18109
487.74814	2.29325
487.94917	2.24696
488.15018	2.27487
488.35118	2.40826
488.55217	2.2184
488.75315	2.28885
488.95411	2.14378
489.15506	2.37989
489.356	2.22452
489.55692	2.23424
489.75783	2.2663
489.95873	2.2536
490.15962	2.27811
490.36049	2.23109
490.56136	2.30986
490.7622	2.17032
490.96304	2.26892
491.16386	2.35052
491.36467	2.16185
491.56547	2.23095
491.76625	2.16816
491.96703	2.21012
492.16779	2.25033
492.36853	2.24149
492.56927	2.22909
492.76999	2.20332
492.9707	2.22296
493.17139	2.21307
493.37207	2.29696
493.57274	2.18215
493.7734	2.36118
493.97405	2.23887
494.17468	2.17963
494.3753	2.12926
494.5759	2.23411
494.7765	2.21239
494.97708	2.22221
495.17764	2.17513
495.3782	2.1312
495.57874	2.10035
495.77927	2.13666
495.97979	2.19186
496.18029	2.22416
496.38078	2.23053
496.58126	2.17105
496.78173	2.20667
496.98218	2.14057
497.18262	2.12596
497.38305	2.15803
497.58346	2.16739
497.78386	2.15389
497.98425	2.0518
498.18463	2.11288
498.38499	2.07887
498.58534	2.09826
498.78568	2.19737
498.98601	2.20102
499.18632	2.08203
499.38662	2.121
499.5869	2.07816
499.78718	2.07031
499.98744	2.1978
500.18769	2.1018
500.38792	2.10231
500.58814	2.12309
500.78835	2.01142
500.98855	2.06631
501.18873	2.08946
501.3889	2.07108
501.58906	2.03799
501.78921	2.14525
501.98934	2.07502
502.18946	2.10897
502.38956	2.08897
502.58966	2.06036
502.78974	2.064
502.98981	2.05286
503.18986	2.11842
503.3899	2.07291
503.58993	2.03258
503.78995	2.04193
503.98995	2.05351
504.18994	1.97188
504.38992	2.04516
504.58989	2.03657
504.78984	2.00741
504.98978	2.03571
505.1897	1.99596
505.38962	2.02861
505.58952	1.97275
505.78941	1.94306
505.98928	2.01931
506.18914	1.95846
506.38899	1.99953
506.58883	1.9212
506.78865	1.9808
506.98846	1.96609
507.18826	1.9526
507.38804	1.96155
507.58781	1.96787
507.78757	1.97545
507.98732	1.93941
508.18705	1.96068
508.38677	1.93914
508.58648	1.94267
508.78617	1.97646
508.98585	1.93465
509.18552	1.94202
509.38517	1.96627
509.58481	1.89355
509.78444	1.95477
509.98406	1.94425
510.18366	1.96737
510.38325	1.89643
510.58283	1.8704
510.78239	1.90199
510.98195	1.88924
511.18148	1.91928
511.38101	1.85959
511.58052	1.925
511.78002	1.91824
511.97951	1.91654
512.17898	1.91251
512.37844	1.8532
512.57789	1.88267
512.77732	1.87473
512.97674	1.9027
513.17615	1.85926
513.37555	1.86941
513.57493	1.86959
513.7743	1.87363
513.97365	1.83509
514.173	1.81737
514.37233	1.82213
514.57165	1.81194
514.77095	1.85324
514.97024	1.84308
515.16952	1.84884
515.36879	1.82431
515.56804	1.82391
515.76728	1.80088
515.9665	1.81963
516.16572	1.80904
516.36492	1.81252
516.5641	1.79703
516.76328	1.80433
516.96244	1.80766
517.16159	1.80267
517.36072	1.79137
517.55984	1.81022
517.75895	1.75877
517.95805	1.75462
518.15713	1.77865
518.3562	1.73856
518.55526	1.74223
518.7543	1.75384
518.95333	1.75458
519.15235	1.77173
519.35135	1.76889
519.55034	1.73458
519.74932	1.73452
519.94829	1.73056
520.14724	1.74749
520.34618	1.72648
520.5451	1.70418
520.74402	1.71942
520.94292	1.73384
521.1418	1.72178
521.34068	1.73348
521.53954	1.71944
521.73838	1.70068
521.93722	1.71002
522.13604	1.71137
522.33485	1.70557
522.53364	1.70379
522.73242	1.71003
522.93119	1.67218
523.12995	1.6842
523.32869	1.66526
523.52742	1.66097
523.72613	1.69149
523.92484	1.68771
524.12353	1.64986
524.3222	1.67007
524.52087	1.63632
524.71952	1.66465
524.91815	1.67155
525.11678	1.64308
525.31539	1.64977
525.51399	1.64107
525.71257	1.62985
525.91114	1.60739
526.1097	1.62785
526.30825	1.63945
526.50678	1.64347
526.7053	1.64643
526.9038	1.59829
527.1023	1.63784
527.30078	1.63085
527.49924	1.6028
527.69769	1.61641
527.89613	1.61205
528.09456	1.58515
528.29297	1.59316
528.49137	1.58994
528.68976	1.6076
528.88814	1.59167
529.0865	1.56455
529.28484	1.55547
529.48318	1.581
529.6815	1.58348
529.87981	1.56013
530.0781	1.56895
530.27638	1.5763
530.47465	1.56514
530.67291	1.53409
530.87115	1.54955
531.06938	1.55072
531.26759	1.54281
531.46579	1.55405
531.66398	1.53545
531.86216	1.53835
532.06032	1.54927
532.25847	1.53653
532.45661	1.5361
532.65473	1.50955
532.85284	1.50293
533.05094	1.51739
533.24902	1.50857
533.44709	1.51657
533.64514	1.50188
533.84319	1.49461
534.04122	1.48232
534.23923	1.5013
534.43724	1.48743
534.63523	1.4858
534.83321	1.49082
535.03117	1.48444
535.22912	1.48965
535.42706	1.47407
535.62498	1.49095
535.82289	1.47835
536.02079	1.47307
536.21867	1.47455
536.41654	1.45999
536.6144	1.46888
536.81225	1.45435
537.01008	1.45024
537.20789	1.4428
537.4057	1.43173
537.60349	1.45257
537.80127	1.44537
537.99903	1.44706
538.19678	1.42923
538.39452	1.44166
538.59224	1.42835
538.78995	1.41526
538.98765	1.43121
539.18534	1.4198
539.38301	1.41306
539.58067	1.41513
539.77831	1.41677
539.97594	1.4056
540.17356	1.4024
540.37116	1.39985
540.56876	1.39891
540.76633	1.39099
540.9639	1.40482
541.16145	1.38859
541.35899	1.39317
541.55651	1.38135
541.75402	1.37621
541.95152	1.37698
542.149	1.37171
542.34647	1.37089
542.54393	1.36677
542.74138	1.35875
542.93881	1.36577
543.13623	1.36535
543.33363	1.36169
543.53102	1.36768
543.7284	1.35344
543.92576	1.34486
544.12311	1.33741
544.32045	1.3495
544.51777	1.34059
544.71508	1.34612
544.91238	1.34052
545.10966	1.33602
545.30693	1.34238
545.50419	1.32691
545.70143	1.33041
545.89866	1.32669
546.09588	1.31342
546.29308	1.32213
546.49027	1.3213
546.68745	1.31783
546.88461	1.31332
547.08176	1.31364
547.2789	1.31306
547.47602	1.31531
547.67313	1.30306
547.87023	1.29536
548.06731	1.30087
548.26438	1.29696
548.46143	1.30043
548.65848	1.30067
548.8555	1.27832
549.05252	1.28295
549.24952	1.27801
549.44651	1.27396
549.64348	1.27299
549.84045	1.28432
550.03739	1.27492
550.23433	1.26698
550.43125	1.27125
550.62816	1.27185
550.82505	1.27395
551.02193	1.25332
551.2188	1.25618
551.41565	1.25628
551.61249	1.25106
551.80932	1.24893
552.00613	1.25013
552.20293	1.24584
552.39972	1.24394
552.59649	1.24274
552.79325	1.23419
552.99	1.23868
553.18673	1.23958
553.38345	1.23275
553.58015	1.21714
553.77684	1.22566
553.97352	1.22761
554.17019	1.2214
554.36684	1.21926
554.56348	1.21933
554.7601	1.21341
554.95671	1.21357
555.15331	1.20975
555.34989	1.20813
555.54646	1.20569
555.74302	1.19655
555.93956	1.19997
556.13609	1.19354
556.33261	1.19467
556.52911	1.19392
556.7256	1.1913
556.92207	1.18905
557.11854	1.19084
557.31498	1.18858
557.51142	1.18537
557.70784	1.1813
557.90425	1.18327
558.10064	1.17675
558.29702	1.17301
558.49339	1.17193
558.68974	1.16979
558.88608	1.16671
559.08241	1.17241
559.27872	1.15616
559.47502	1.16228
559.6713	1.15967
559.86758	1.15557
560.06383	1.15273
560.26008	1.15862
560.45631	1.14529
560.65253	1.15394
560.84873	1.14694
561.04492	1.15448
561.2411	1.14082
561.43726	1.13972
561.63341	1.13428
561.82955	1.13562
562.02567	1.14641
562.22178	1.14058
562.41787	1.13915
562.61395	1.13028
562.81002	1.12742
563.00608	1.12272
563.20212	1.11548
563.39814	1.12078
563.59416	1.11964
563.79016	1.11261
563.98614	1.11582
564.18211	1.11717
564.37807	1.11327
564.57402	1.10962
564.76995	1.10655
564.96587	1.10905
565.16177	1.10038
565.35766	1.09603
565.55354	1.10031
565.7494	1.09562
565.94525	1.1057
566.14109	1.08961
566.33691	1.09488
566.53272	1.09313
566.72851	1.08708
566.92429	1.08941
567.12006	1.08162
567.31581	1.08501
567.51155	1.08102
567.70728	1.0778
567.90299	1.07659
568.09869	1.07161
568.29438	1.07494
568.49005	1.08085
568.68571	1.07616
568.88135	1.06893
569.07698	1.06735
569.2726	1.06609
569.4682	1.06491
569.66379	1.06031
569.85937	1.06316
570.05493	1.0577
570.25048	1.06185
570.44601	1.05481
570.64153	1.05264
570.83704	1.05326
571.03253	1.04911
571.22801	1.04595
571.42348	1.04473
571.61893	1.04495
571.81437	1.0433
572.0098	1.04201
572.20521	1.04144
572.4006	1.03307
572.59599	1.0375
572.79136	1.03475
572.98671	1.03001
573.18206	1.03328
573.37738	1.02994
573.5727	1.02465
573.768	1.02715
573.96329	1.0251
574.15856	1.02387
574.35382	1.02382
574.54907	1.01813
574.7443	1.02089
574.93952	1.01598
575.13472	1.01201
575.32991	1.01231
575.52509	1.01024
575.72025	1.0124
575.9154	1.0062
576.11054	1.00421
576.30566	1.00451
576.50077	1.00072
576.69586	1.00188
576.89094	1.00532
577.08601	1.00009
577.28106	0.99732
577.4761	0.9978
577.67113	0.99246
577.86614	0.99607
578.06114	0.99415
578.25612	0.99001
578.45109	0.98729
578.64605	0.98595
578.84099	0.98768
579.03592	0.98522
579.23083	0.9804
579.42573	0.98469
579.62062	0.97771
579.81549	0.98035
580.01035	0.97577
580.2052	0.97466
580.40003	0.9716
580.59485	0.97532
580.78965	0.968
580.98444	0.96836
581.17922	0.96718
581.37398	0.96449
581.56873	0.96482
581.76346	0.96306
581.95818	0.96292
582.15289	0.96096
582.34758	0.96251
582.54226	0.9611
582.73693	0.95725
582.93158	0.95516
583.12622	0.95865
583.32084	0.94948
583.51545	0.95529
583.71005	0.94902
583.90463	0.94789
584.0992	0.94294
584.29375	0.9448
584.48829	0.9433
584.68282	0.94082
584.87733	0.94181
585.07183	0.93892
585.26631	0.93979
585.46079	0.93506
585.65524	0.93558
585.84969	0.93472
586.04411	0.9313
586.23853	0.9288
586.43293	0.93095
586.62732	0.92826
586.82169	0.92789
587.01605	0.92593
587.2104	0.92827
587.40473	0.92628
587.59905	0.92387
587.79335	0.92044
587.98764	0.92025
588.18192	0.91956
588.37618	0.91828
588.57043	0.91472
588.76466	0.91145
588.95888	0.91275
589.15309	0.91315
589.34728	0.9104
589.54146	0.9109
589.73562	0.9053
589.92977	0.90723
590.12391	0.90571
590.31803	0.90562
590.51214	0.90435
590.70623	0.90234
590.90031	0.90504
591.09438	0.89846
591.28843	0.89539
591.48247	0.89778
591.67649	0.89462
591.8705	0.89448
592.0645	0.89371
592.25848	0.89267
592.45245	0.88838
592.64641	0.88651
592.84035	0.8865
593.03427	0.88814
593.22818	0.88592
593.42208	0.88451
593.61597	0.88379
593.80984	0.88396
594.00369	0.88481
594.19754	0.88241
594.39136	0.88019
594.58518	0.87882
594.77898	0.87884
594.97277	0.8768
595.16654	0.8741
595.3603	0.87375
595.55404	0.87217
595.74777	0.87115
595.94149	0.87308
596.13519	0.86956
596.32888	0.86927
596.52255	0.86273
596.71621	0.86792
596.90985	0.86447
597.10349	0.864
597.2971	0.86156
597.49071	0.86203
597.6843	0.86306
597.87787	0.8595
598.07143	0.85946
598.26498	0.85878
598.45851	0.85715
598.65203	0.85566
598.84554	0.8532
599.03903	0.85254
599.23251	0.85275
599.42597	0.84942
599.61942	0.84911
599.81285	0.8503
600.00627	0.84779
600.19968	0.84637
600.39307	0.8455
600.58645	0.84402
600.77981	0.84274
600.97316	0.84166
601.1665	0.84211
601.35982	0.83951
601.55313	0.83872
601.74642	0.83849
601.9397	0.83674
602.13297	0.834
602.32622	0.83387
602.51946	0.83559
602.71268	0.8346
602.90589	0.83229
603.09908	0.8274
603.29226	0.82989
603.48543	0.82695
603.67858	0.8282
603.87172	0.82774
604.06484	0.82646
604.25795	0.82787
604.45105	0.82368
604.64413	0.82299
604.8372	0.822
605.03025	0.8222
605.22329	0.81849
605.41631	0.81932
605.60932	0.81978
605.80232	0.82001
605.9953	0.8193
606.18827	0.81471
606.38122	0.81414
606.57416	0.8148
606.76709	0.81682
606.96	0.81371
607.1529	0.81055
607.34578	0.81092
607.53865	0.80734
607.7315	0.80858
607.92434	0.80626
608.11717	0.80639
608.30998	0.80739
608.50278	0.80372
608.69556	0.80273
608.88833	0.80153
609.08109	0.80507
609.27383	0.79883
609.46656	0.79849
609.65927	0.79682
609.85197	0.79561
610.04465	0.79591
610.23732	0.79413
610.42998	0.79566
610.62262	0.79339
610.81525	0.79281
611.00786	0.79536
611.20046	0.79181
611.39304	0.79135
611.58561	0.78928
611.77817	0.79103
611.97071	0.78682
612.16324	0.78731
612.35575	0.78771
612.54825	0.78622
612.74073	0.78366
612.9332	0.78227
613.12566	0.78508
613.3181	0.78492
613.51053	0.78233
613.70294	0.78273
613.89534	0.77926
614.08772	0.7767
614.2801	0.77989
614.47245	0.77628
614.66479	0.77777
614.85712	0.77323
615.04943	0.77498
615.24173	0.77235
615.43402	0.7696
615.62629	0.76788
615.81854	0.77141
616.01079	0.76848
616.20301	0.76816
616.39523	0.76688
616.58743	0.76653
616.77961	0.76424
616.97178	0.76501
617.16394	0.76281
617.35608	0.7635
617.5482	0.76277
617.74032	0.75975
617.93242	0.76209
618.1245	0.75779
618.31657	0.76069
618.50863	0.75885
618.70067	0.75669
618.89269	0.75806
619.08471	0.75642
619.27671	0.75615
619.46869	0.75468
619.66066	0.75558
619.85261	0.75234
620.04455	0.75106
620.23648	0.74968
620.42839	0.75051
620.62029	0.7484
620.81217	0.74633
621.00404	0.74401
621.1959	0.74764
621.38774	0.7444
621.57956	0.74443
621.77138	0.74467
621.96317	0.74539
622.15496	0.74214
622.34672	0.74114
622.53848	0.74063
622.73022	0.73904
622.92194	0.73987
623.11365	0.73982
623.30535	0.73915
623.49703	0.73788
623.6887	0.73664
623.88035	0.73616
624.07199	0.73533
624.26362	0.73481
624.45523	0.73117
624.64682	0.73185
624.8384	0.7321
625.02997	0.73052
625.22152	0.73156
625.41306	0.73039
625.60458	0.72945
625.79609	0.72852
625.98759	0.72784
626.17907	0.72753
626.37053	0.72556
626.56198	0.72312
626.75342	0.72286
626.94484	0.72365
627.13625	0.72122
627.32764	0.72081
627.51902	0.7166
627.71039	0.71976
627.90174	0.71711
628.09307	0.71702
628.28439	0.71932
628.4757	0.71698
628.66699	0.71552
628.85827	0.71751
629.04953	0.71644
629.24078	0.71385
629.43202	0.71462
629.62324	0.71301
629.81444	0.71285
630.00563	0.70929
630.19681	0.70909
630.38797	0.70987
630.57912	0.70954
630.77025	0.70613
630.96137	0.70859
631.15247	0.70658
631.34356	0.70571
631.53464	0.7038
631.7257	0.70385
631.91674	0.70452
632.10778	0.70264
632.29879	0.70305
632.48979	0.70261
632.68078	0.69974
632.87176	0.69796
633.06271	0.70049
633.25366	0.69901
633.44459	0.69875
633.6355	0.69978
633.8264	0.69606
634.01729	0.69579
634.20816	0.69584
634.39902	0.69439
634.58986	0.69305
634.78069	0.69278
634.9715	0.69371
635.1623	0.69191
635.35309	0.692
635.54385	0.69122
635.73461	0.68681
635.92535	0.68766
636.11608	0.68806
636.30679	0.68561
636.49748	0.68748
636.68817	0.68592
636.87883	0.68643
637.06949	0.68434
637.26013	0.68283
637.45075	0.68338
637.64136	0.67956
637.83195	0.68049
638.02253	0.68066
638.2131	0.68087
638.40365	0.67896
638.59419	0.67903
638.78471	0.67801
638.97522	0.6771
639.16571	0.67906
639.35619	0.67546
639.54665	0.67729
639.7371	0.67551
639.92753	0.67432
640.11795	0.67347
640.30836	0.67425
640.49875	0.67255
640.68912	0.67193
640.87949	0.67107
641.06983	0.67185
641.26016	0.671
641.45048	0.66837
641.64078	0.66483
641.83107	0.66807
642.02134	0.66693
642.2116	0.66629
642.40185	0.66338
642.59208	0.66551
642.78229	0.66296
642.97249	0.66399
643.16268	0.66211
643.35285	0.663
643.543	0.66048
643.73314	0.66076
643.92327	0.66035
644.11338	0.65842
644.30348	0.6583
644.49356	0.65923
644.68363	0.65923
644.87368	0.65577
645.06372	0.65545
645.25375	0.65569
645.44376	0.65286
645.63375	0.65497
645.82373	0.65509
646.0137	0.65086
646.20365	0.65202
646.39358	0.65031
646.5835	0.65089
646.77341	0.6493
646.9633	0.65126
647.15318	0.64973
647.34304	0.64547
647.53289	0.64917
647.72272	0.64833
647.91254	0.64598
648.10234	0.6455
648.29213	0.6448
648.4819	0.64563
648.67166	0.64385
648.86141	0.64323
649.05114	0.64259
649.24085	0.64096
649.43055	0.63846
649.62024	0.64011
649.80991	0.63911
649.99957	0.63804
650.18921	0.63878
650.37883	0.63594
650.56844	0.63815
650.75804	0.63581
650.94762	0.63566
651.13719	0.63495
651.32674	0.63428
651.51628	0.63392
651.70581	0.6333
651.89531	0.63353
652.08481	0.63336
652.27429	0.63178
652.46375	0.63146
652.6532	0.62947
652.84263	0.63069
653.03205	0.63163
653.22146	0.63054
653.41085	0.62679
653.60022	0.62946
653.78958	0.62577
653.97893	0.62544
654.16826	0.62587
654.35758	0.62358
654.54688	0.62331
654.73617	0.62467
654.92544	0.62159
655.11469	0.62068
655.30394	0.62013
655.49316	0.61502
655.68238	0.61352
655.87157	0.61272
656.06076	0.61072
656.24992	0.61108
656.43908	0.61402
656.62822	0.61444
656.81734	0.61629
657.00645	0.61596
657.19554	0.61621
657.38462	0.61502
657.57368	0.61387
657.76273	0.61391
657.95177	0.6127
658.14079	0.61125
658.32979	0.61383
658.51878	0.61161
658.70776	0.61151
658.89672	0.61255
659.08566	0.61012
659.27459	0.61061
659.46351	0.607
659.65241	0.60691
659.84129	0.60827
660.03016	0.60787
660.21902	0.60612
660.40786	0.60534
660.59669	0.60578
660.7855	0.60345
660.9743	0.60418
661.16308	0.60216
661.35184	0.60278
661.5406	0.60273
661.72933	0.6013
661.91805	0.60143
662.10676	0.60156
662.29545	0.59899
662.48413	0.5984
662.67279	0.59984
662.86144	0.59889
663.05007	0.59682
663.23869	0.59838
663.42729	0.59562
663.61588	0.59571
663.80445	0.59219
663.99301	0.59513
664.18155	0.59517
664.37008	0.59386
664.55859	0.59356
664.74709	0.59403
664.93557	0.59163
665.12404	0.58977
665.3125	0.59081
665.50093	0.59111
665.68936	0.58998
665.87777	0.58721
666.06616	0.58714
666.25454	0.58642
666.4429	0.58738
666.63125	0.58653
666.81958	0.58583
667.0079	0.58492
667.19621	0.58738
667.38449	0.58382
667.57277	0.58444
667.76103	0.58119
667.94927	0.58371
668.1375	0.58248
668.32571	0.58265
668.51391	0.58222
668.70209	0.57887
668.89026	0.58084
669.07842	0.58108
669.26656	0.58084
669.45468	0.57931
669.64279	0.5786
669.83088	0.57751
670.01896	0.57653
670.20702	0.57729
670.39507	0.57738
670.58311	0.57717
670.77112	0.57454
670.95913	0.57597
671.14712	0.57478
671.33509	0.57406
671.52305	0.57244
671.71099	0.57192
671.89892	0.57218
672.08683	0.57145
672.27473	0.56997
672.46262	0.57076
672.65048	0.56984
672.83834	0.57118
673.02617	0.56879
673.214	0.56808
673.40181	0.56686
673.5896	0.56742
673.77738	0.56805
673.96514	0.56759
674.15289	0.56332
674.34062	0.56541
674.52834	0.56423
674.71604	0.56536
674.90373	0.56426
675.0914	0.56646
675.27906	0.56255
675.4667	0.56209
675.65433	0.56075
675.84194	0.56146
676.02954	0.55998
676.21712	0.56079
676.40468	0.55969
676.59224	0.56029
676.77977	0.55831
676.96729	0.55881
677.1548	0.55706
677.34229	0.55731
677.52977	0.55701
677.71723	0.55729
677.90467	0.5547
678.09211	0.55586
678.27952	0.55365
678.46692	0.55282
678.65431	0.55526
678.84168	0.55412
679.02903	0.55139
679.21637	0.55124
679.4037	0.55423
679.59101	0.55114
679.7783	0.55086
679.96558	0.54993
680.15285	0.5496
680.34009	0.54928
680.52733	0.54994
680.71455	0.5488
680.90175	0.54775
681.08894	0.54876
681.27611	0.54618
681.46327	0.54574
681.65041	0.54666
681.83754	0.54595
682.02465	0.54517
682.21175	0.54645
682.39883	0.5436
682.5859	0.54365
682.77295	0.54526
682.95999	0.54353
683.14701	0.54109
683.33402	0.54073
683.52101	0.54073
683.70799	0.54004
683.89495	0.5405
684.08189	0.53955
684.26882	0.54087
684.45574	0.53906
684.64264	0.53952
684.82952	0.53663
685.01639	0.53872
685.20325	0.53552
685.39009	0.53673
685.57691	0.53457
685.76372	0.53577
685.95051	0.53556
686.13729	0.5363
686.32405	0.53263
686.5108	0.53443
686.69753	0.53447
686.88425	0.53389
687.07095	0.5333
687.25764	0.53309
687.44431	0.53449
687.63097	0.53276
687.81761	0.53155
688.00424	0.53193
688.19085	0.5319
688.37744	0.52913
688.56402	0.52946
688.75059	0.52935
688.93714	0.52735
689.12367	0.52627
689.31019	0.5277
689.49669	0.52578
689.68318	0.52572
689.86966	0.52683
690.05611	0.52711
690.24256	0.52549
690.42898	0.52564
690.6154	0.52386
690.80179	0.5252
690.98818	0.52467
691.17454	0.52391
691.36089	0.52272
691.54723	0.52218
691.73355	0.52381
691.91985	0.52256
692.10614	0.51959
692.29242	0.51992
692.47868	0.51888
692.66492	0.51989
692.85115	0.52171
693.03736	0.51892
693.22356	0.51858
693.40974	0.51991
693.59591	0.51928
693.78206	0.51832
693.9682	0.51779
694.15432	0.51655
694.34043	0.51634
694.52652	0.51772
694.71259	0.51544
694.89865	0.51649
695.0847	0.5149
695.27073	0.51558
695.45674	0.51373
695.64274	0.51473
695.82872	0.51395
696.01469	0.51412
696.20064	0.51207
696.38658	0.51334
696.5725	0.51311
696.75841	0.51153
696.9443	0.51082
697.13017	0.51128
697.31603	0.50986
697.50188	0.51029
697.68771	0.51019
697.87352	0.50837
698.05932	0.51049
698.2451	0.50936
698.43087	0.50916
698.61662	0.50855
698.80236	0.50729
698.98808	0.50822
699.17379	0.50803
699.35948	0.50713
699.54516	0.50794
699.73082	0.50555
699.91646	0.50545
700.10209	0.50632
700.2877	0.50602
700.4733	0.50633
700.65888	0.50622
700.84445	0.50475
701.03	0.50407
701.21554	0.50502
701.40106	0.50515
701.58657	0.50346
701.77206	0.5035
701.95753	0.50145
702.14299	0.50228
702.32844	0.50001
702.51387	0.50205
702.69928	0.50047
702.88468	0.50124
703.07006	0.50095
703.25543	0.50028
703.44078	0.50022
703.62611	0.4992
703.81143	0.49781
703.99674	0.49915
704.18203	0.49782
704.3673	0.49808
704.55256	0.49751
704.7378	0.49858
704.92303	0.4977
705.10824	0.49714
705.29344	0.49704
705.47862	0.49688
705.66379	0.49615
705.84894	0.4963
706.03407	0.49369
706.21919	0.49351
706.4043	0.49403
706.58938	0.49611
706.77446	0.49409
706.95951	0.49499
707.14456	0.49366
707.32958	0.49225
707.51459	0.49383
707.69959	0.49248
707.88457	0.49379
708.06953	0.49238
708.25448	0.49109
708.43941	0.49211
708.62433	0.48897
708.80923	0.49008
708.99412	0.49039
709.17899	0.49033
709.36385	0.49079
709.54869	0.48927
709.73351	0.48894
709.91832	0.48886
710.10311	0.48797
710.28789	0.4894
710.47265	0.48924
710.6574	0.48778
710.84213	0.48662
711.02685	0.48755
711.21155	0.48605
711.39623	0.48687
711.5809	0.48673
711.76555	0.48638
711.95019	0.48698
712.13481	0.48602
712.31942	0.48569
712.50401	0.48568
712.68859	0.48453
712.87314	0.48368
713.05769	0.48365
713.24222	0.48496
713.42673	0.48429
713.61123	0.48334
713.79571	0.48328
713.98018	0.48415
714.16463	0.48282
714.34906	0.48402
714.53348	0.48187
714.71788	0.4834
714.90227	0.48099
715.08665	0.48083
715.271	0.48054
715.45534	0.47987
715.63967	0.47981
715.82398	0.47987
716.00827	0.48124
716.19255	0.47923
716.37682	0.47988
716.56106	0.47944
716.7453	0.47999
716.92951	0.48082
717.11371	0.48082
717.2979	0.47865
717.48207	0.47915
717.66622	0.47896
717.85036	0.47731
718.03448	0.47705
718.21859	0.47874
718.40268	0.47775
718.58675	0.47811
718.77081	0.47707
718.95486	0.47802
719.13889	0.4763
719.3229	0.47726
719.5069	0.47526
719.69088	0.4766
719.87484	0.47663
720.05879	0.47551
720.24273	0.47559
720.42665	0.47449
720.61055	0.47511
720.79444	0.47599
720.97831	0.4763
721.16216	0.47552
721.346	0.47468
721.52983	0.47404
721.71364	0.47431
721.89743	0.47403
722.08121	0.47303
722.26497	0.47346
722.44872	0.47339
722.63245	0.47443
722.81616	0.47271
722.99986	0.47289
723.18354	0.47319
723.36721	0.47271
723.55086	0.47139
723.7345	0.47178
723.91812	0.47298
724.10172	0.47349
724.28531	0.47177
724.46888	0.4708
724.65244	0.47315
724.83598	0.47094
725.01951	0.47041
725.20302	0.47229
725.38651	0.47095
725.56999	0.47136
725.75345	0.47041
725.9369	0.47046
726.12033	0.47075
726.30374	0.46855
726.48714	0.46834
726.67053	0.46849
726.8539	0.46735
727.03725	0.4688
727.22059	0.46983
727.40391	0.46702
727.58721	0.46807
727.7705	0.46855
727.95377	0.46679
728.13703	0.46895
728.32027	0.46968
728.5035	0.46747
728.68671	0.46685
728.8699	0.46746
729.05308	0.46803
729.23624	0.46614
729.41939	0.46617
729.60252	0.46606
729.78564	0.46656
729.96874	0.46624
730.15182	0.46489
730.33489	0.46383
730.51794	0.46536
730.70098	0.46487
730.884	0.46491
731.067	0.46497
731.24999	0.46382
731.43296	0.4642
731.61592	0.46513
731.79886	0.46471
731.98179	0.46479
732.1647	0.46262
732.34759	0.4645
732.53047	0.46374
732.71333	0.46362
732.89618	0.46336
733.07901	0.46277
733.26182	0.46352
733.44462	0.46302
733.6274	0.46399
733.81017	0.46188
733.99292	0.46357
734.17565	0.4631
734.35837	0.46198
734.54108	0.46126
734.72376	0.46342
734.90644	0.46059
735.08909	0.46095
735.27173	0.46114
735.45435	0.46145
735.63696	0.45917
735.81955	0.46065
736.00213	0.45892
736.18469	0.46025
736.36724	0.45918
736.54976	0.4606
736.73228	0.45988
736.91477	0.4611
737.09725	0.45853
737.27972	0.45926
737.46217	0.45969
737.6446	0.45882
737.82702	0.45852
738.00942	0.45964
738.1918	0.46007
738.37417	0.45794
738.55653	0.45662
738.73886	0.45716
738.92118	0.45673
739.10349	0.45745
739.28578	0.45612
739.46805	0.45708
739.65031	0.45594
739.83255	0.45485
740.01478	0.4544
740.19699	0.45688
740.37918	0.45525
740.56136	0.45452
740.74352	0.45524
740.92567	0.45516
741.1078	0.45507
741.28991	0.45442
741.47201	0.45461
741.65409	0.45371
741.83616	0.45368
742.01821	0.45342
742.20024	0.45367
742.38226	0.45175
742.56426	0.45196
742.74625	0.45086
742.92822	0.45215
743.11017	0.45214
743.29211	0.45004
743.47403	0.45065
743.65594	0.45037
743.83783	0.44889
744.0197	0.4493
744.20156	0.44843
744.3834	0.4479
744.56523	0.44819
744.74704	0.44845
744.92883	0.44708
745.11061	0.447
745.29237	0.4489
745.47412	0.44555
745.65585	0.44495
745.83756	0.44544
746.01926	0.44553
746.20094	0.4444
746.38261	0.44329
746.56426	0.44437
746.74589	0.44407
746.92751	0.44054
747.10911	0.44099
747.2907	0.43948
747.47227	0.43866
747.65382	0.43993
747.83536	0.43756
748.01688	0.43721
748.19838	0.43725
748.37987	0.43679
748.56135	0.43665
748.7428	0.43568
748.92424	0.43498
749.10567	0.43378
749.28708	0.43233
749.46847	0.43326
749.64985	0.42953
749.83121	0.43073
750.01255	0.42861
750.19388	0.4281
750.37519	0.42724
750.55649	0.42671
750.73777	0.42657
750.91903	0.42446
751.10028	0.42453
751.28151	0.42304
751.46273	0.42207
751.64393	0.41925
751.82511	0.41974
752.00628	0.42033
752.18743	0.41808
752.36856	0.41549
752.54968	0.41478
752.73079	0.41477
752.91187	0.41296
753.09294	0.41192
753.274	0.41081
753.45504	0.40972
753.63606	0.40792
753.81706	0.40488
753.99805	0.40567
754.17903	0.40288
754.35998	0.4024
754.54093	0.40086
754.72185	0.39966
754.90276	0.3983
755.08365	0.39673
755.26453	0.39643
755.44539	0.39534
755.62623	0.3923
755.80706	0.39048
755.98787	0.38884
756.16867	0.38675
756.34945	0.38534
756.53021	0.38397
756.71096	0.38203
756.89169	0.37922
757.07241	0.37667
757.25311	0.37646
757.43379	0.37439
757.61445	0.37227
757.79511	0.36945
757.97574	0.36886
758.15636	0.36716
758.33696	0.36354
758.51754	0.36385
758.69811	0.36197
758.87867	0.36104
759.0592	0.35779
759.23972	0.35438
759.42023	0.35395
759.60072	0.35164
759.78119	0.34881
759.96164	0.34637
760.14208	0.34599
760.32251	0.3416
760.50291	0.34082
760.6833	0.33831
760.86368	0.33562
761.04404	0.33446
761.22438	0.33191
761.4047	0.32917
761.58501	0.3263
761.76531	0.32397
761.94558	0.32303
762.12584	0.319
762.30609	0.31816
762.48632	0.31478
762.66653	0.31293
762.84672	0.31079
763.0269	0.308
763.20707	0.30629
763.38721	0.3055
763.56734	0.30194
763.74746	0.29812
763.92756	0.29574
764.10764	0.29326
764.2877	0.29126
764.46775	0.28813
764.64778	0.28535
764.8278	0.28468
765.0078	0.28147
765.18779	0.27948
765.36775	0.27707
765.5477	0.27421
765.72764	0.27315
765.90756	0.27154
766.08746	0.27046
766.26735	0.26672
766.44722	0.26373
766.62707	0.26139
766.80691	0.25964
766.98673	0.25744
767.16653	0.25472
767.34632	0.25228
767.52609	0.2509
767.70585	0.24638
767.88559	0.24627
768.06531	0.24283
768.24502	0.24095
768.42471	0.23844
768.60438	0.23709
768.78404	0.23537
768.96368	0.23257
769.1433	0.23121
769.32291	0.22932
769.5025	0.22649
769.68208	0.22609
769.86164	0.22425
770.04118	0.22178
770.22071	0.22046
770.40022	0.21757
770.57971	0.21686
770.75919	0.21405
770.93865	0.21124
771.11809	0.21042
771.29752	0.20754
771.47693	0.20619
771.65633	0.20525
771.83571	0.20168
772.01507	0.20006
772.19442	0.19938
772.37375	0.19836
772.55306	0.19589
772.73236	0.19504
772.91164	0.19285
773.0909	0.19233
773.27015	0.18966
773.44938	0.18855
773.6286	0.18814
773.8078	0.18564
773.98698	0.18344
774.16614	0.18276
774.34529	0.18278
774.52443	0.18131
774.70354	0.17908
774.88264	0.17853
775.06173	0.177
775.24079	0.17463
775.41984	0.17376
775.59888	0.17405
775.77789	0.17189
775.9569	0.17137
776.13588	0.16868
776.31485	0.16778
776.4938	0.16754
776.67274	0.16758
776.85166	0.16564
777.03056	0.16451
777.20944	0.16382
777.38831	0.16265
777.56717	0.16157
777.746	0.16121
777.92482	0.15946
778.10363	0.15914
778.28242	0.15742
778.46119	0.15719
778.63994	0.15607
778.81868	0.1544
778.9974	0.15493
779.1761	0.15353
779.35479	0.15395
779.53346	0.15094
779.71212	0.15198
779.89076	0.15025
780.06938	0.15059
780.24799	0.14986
780.42658	0.14871
780.60515	0.1474
780.78371	0.14661
780.96225	0.14793
781.14077	0.14609
781.31928	0.14631
781.49777	0.14464
781.67624	0.14528
781.8547	0.14484
782.03314	0.14417
782.21156	0.14428
782.38997	0.14268
782.56836	0.14266
782.74673	0.14229
782.92509	0.14102
783.10343	0.14043
783.28176	0.14169
783.46007	0.1428
783.63836	0.14103
783.81663	0.14039
783.99489	0.13951
784.17313	0.13934
784.35136	0.1394
784.52957	0.14016
784.70776	0.13997
784.88593	0.1394
785.06409	0.138
785.24224	0.13711
785.42036	0.13813
785.59847	0.13816
785.77656	0.13831
785.95464	0.13758
786.1327	0.13804
786.31074	0.13776
786.48877	0.13648
786.66678	0.13794
786.84477	0.13669
787.02275	0.13554
787.20071	0.13848
787.37865	0.13718
787.55658	0.13619
787.73449	0.13759
787.91238	0.13656
788.09026	0.13621
788.26812	0.13609
788.44596	0.13743
788.62379	0.13609
788.8016	0.13635
788.9794	0.1361
789.15717	0.13659
789.33493	0.13584
789.51268	0.13601
789.6904	0.13677
789.86811	0.13633
790.04581	0.1368
790.22349	0.13686
790.40115	0.1365
790.57879	0.13608
790.75642	0.13677
790.93403	0.13645
791.11162	0.13572
791.2892	0.1356
791.46676	0.1364
791.6443	0.13604
791.82183	0.13663
791.99934	0.1363
792.17684	0.13748
792.35431	0.13659
792.53177	0.13676
792.70922	0.1375
792.88665	0.13741
793.06406	0.13702
793.24145	0.13832
793.41883	0.13688
793.59619	0.13747
793.77353	0.13816
793.95086	0.13776
794.12817	0.13931
794.30546	0.13898
794.48274	0.13819
794.66	0.13694
794.83724	0.13705
795.01447	0.13898
795.19168	0.1376
795.36887	0.13808
795.54605	0.13912
795.72321	0.14063
795.90035	0.13975
796.07748	0.13951
796.25459	0.13967
796.43168	0.13997
796.60876	0.1406
796.78582	0.14167
796.96286	0.14147
797.13989	0.14169
797.3169	0.14136
797.49389	0.14184
797.67086	0.14237
797.84782	0.14152
798.02477	0.14134
798.20169	0.14149
798.3786	0.14187
798.55549	0.14205
798.73237	0.14265
798.90923	0.14266
799.08607	0.143
799.26289	0.14378
799.4397	0.14447
799.61649	0.14411
799.79327	0.14291
799.97002	0.14398
800.14676	0.14555
800.32349	0.14442
800.5002	0.14472
800.67689	0.14448
800.85356	0.14629
801.03022	0.14563
801.20686	0.14638
801.38348	0.14435
801.56009	0.14528
801.73668	0.14661
801.91325	0.14706
802.08981	0.14666
802.26635	0.14615
802.44287	0.14727
802.61937	0.14624
802.79586	0.14759
802.97233	0.14636
803.14879	0.14818
803.32523	0.14691
803.50165	0.14869
803.67805	0.14829
803.85444	0.14996
804.03081	0.15053
804.20717	0.14902
804.3835	0.14867
804.55983	0.14925
804.73613	0.14995
804.91242	0.15112
805.08869	0.15015
805.26494	0.15191
805.44117	0.15236
805.61739	0.15113
805.7936	0.15061
805.96978	0.15245
806.14595	0.15153
806.3221	0.15233
806.49824	0.15312
806.67436	0.15126
806.85046	0.153
807.02654	0.1514
807.20261	0.15437
807.37866	0.15501
807.55469	0.15323
807.73071	0.15468
807.90671	0.15502
808.08269	0.15617
808.25866	0.15678
808.43461	0.15602
808.61054	0.15741
808.78645	0.1555
808.96235	0.15604
809.13823	0.15796
809.3141	0.15689
809.48995	0.15661
809.66578	0.1575
809.84159	0.15746
810.01739	0.15947
810.19317	0.15793
810.36893	0.1583
810.54468	0.15852
810.7204	0.15908
810.89612	0.15869
811.07181	0.1588
811.24749	0.15947
811.42315	0.16054
811.5988	0.1601
811.77442	0.16053
811.95003	0.15979
812.12563	0.16023
812.3012	0.16112
812.47676	0.16161
812.65231	0.16247
812.82783	0.1634
813.00334	0.16289
813.17883	0.16261
813.35431	0.16316
813.52976	0.16399
813.70521	0.16494
813.88063	0.16581
814.05604	0.16494
814.23143	0.16429
814.4068	0.165
814.58215	0.16544
814.75749	0.16535
814.93281	0.1662
815.10812	0.16426
815.28341	0.16535
815.45868	0.16698
815.63393	0.16616
815.80917	0.16628
815.98439	0.1673
816.15959	0.1677
816.33478	0.16668
816.50995	0.16728
816.6851	0.16982
816.86023	0.16796
817.03535	0.16847
817.21045	0.16781
817.38553	0.16821
817.5606	0.16967
817.73565	0.16956
817.91068	0.16895
818.0857	0.1701
818.2607	0.17083
818.43568	0.1694
818.61064	0.16998
818.78559	0.17249
818.96052	0.17046
819.13543	0.17232
819.31033	0.17169
819.48521	0.17206
819.66007	0.1718
819.83491	0.17324
820.00974	0.17367
820.18455	0.17318
820.35935	0.17463
820.53412	0.1746
820.70888	0.1748
820.88362	0.17482
821.05835	0.17571
821.23306	0.17628
821.40775	0.1769
821.58242	0.17595
821.75708	0.17589
821.93172	0.17554
822.10634	0.17675
822.28095	0.17723
822.45554	0.17726
822.63011	0.17482
822.80466	0.17861
822.9792	0.17816
823.15372	0.17841
823.32822	0.17717
823.50271	0.17721
823.67718	0.17889
823.85163	0.17837
824.02606	0.18041
824.20048	0.179
824.37488	0.17956
824.54926	0.18054
824.72363	0.181
824.89798	0.18225
825.07231	0.18048
825.24663	0.18257
825.42092	0.18342
825.5952	0.18136
825.76947	0.18161
825.94371	0.18164
826.11794	0.18289
826.29215	0.18296
826.46635	0.18342
826.64052	0.18294
826.81468	0.1837
826.98883	0.18403
827.16295	0.18238
827.33706	0.18403
827.51115	0.18455
827.68523	0.18312
827.85928	0.18304
828.03332	0.18385
828.20735	0.184
828.38135	0.18518
828.55534	0.18437
828.72931	0.1848
828.90327	0.18564
829.0772	0.18651
829.25112	0.18581
829.42502	0.18685
829.59891	0.18583
829.77278	0.18696
829.94663	0.18796
830.12046	0.18761
830.29428	0.18715
830.46808	0.18861
830.64186	0.19031
830.81562	0.18905
830.98937	0.18924
831.1631	0.18889
831.33681	0.18775
831.51051	0.18997
831.68419	0.1901
831.85785	0.19111
832.03149	0.19064
832.20512	0.19115
832.37873	0.19252
832.55232	0.19098
832.72589	0.19177
832.89945	0.19175
833.07299	0.1925
833.24652	0.19269
833.42002	0.19223
833.59351	0.19242
833.76698	0.19293
833.94044	0.19162
834.11387	0.19499
834.28729	0.1935
834.46069	0.19345
834.63408	0.19373
834.80745	0.19508
834.9808	0.19497
835.15413	0.19538
835.32745	0.19691
835.50075	0.19648
835.67403	0.19678
835.84729	0.19658
836.02054	0.1972
836.19377	0.19745
836.36698	0.19789
836.54017	0.19905
836.71335	0.19799
836.88651	0.19806
837.05965	0.19841
837.23278	0.20011
837.40589	0.20009
837.57898	0.19743
837.75205	0.20007
837.92511	0.19694
838.09815	0.2004
838.27117	0.19995
838.44417	0.20035
838.61716	0.20054
838.79013	0.20098
838.96308	0.20179
839.13602	0.20057
839.30893	0.20232
839.48183	0.20249
839.65472	0.20224
839.82758	0.20181
840.00043	0.20309
840.17326	0.20283
840.34607	0.20206
840.51887	0.20285
840.69165	0.20155
840.86441	0.20436
841.03715	0.2039
841.20988	0.20385
841.38259	0.20412
841.55528	0.20386
841.72795	0.20454
841.90061	0.20499
842.07325	0.20658
842.24587	0.2054
842.41848	0.20724
842.59107	0.20608
842.76364	0.20681
842.93619	0.20742
843.10872	0.20903
843.28124	0.20788
843.45374	0.20754
843.62623	0.20964
843.79869	0.20793
843.97114	0.20887
844.14357	0.2085
844.31598	0.21093
844.48838	0.20787
844.66076	0.21021
844.83312	0.20912
845.00546	0.20833
845.17779	0.20997
845.3501	0.20994
845.52239	0.21065
845.69466	0.21097
845.86692	0.21159
846.03916	0.21108
846.21138	0.21045
846.38358	0.21161
846.55577	0.21195
846.72794	0.212
846.90009	0.21227
847.07223	0.21221
847.24434	0.21321
847.41644	0.21283
847.58852	0.21284
847.76059	0.21438
847.93263	0.21276
848.10466	0.21383
848.27668	0.21326
848.44867	0.21426
848.62065	0.21523
848.79261	0.21554
848.96455	0.21337
849.13647	0.21413
849.30838	0.2144
849.48027	0.21483
849.65214	0.21536
849.824	0.21827
849.99583	0.21785
850.16765	0.2156
850.33946	0.21743
850.51124	0.21833
850.68301	0.21554
850.85476	0.21922
851.02649	0.21845
851.1982	0.21724
851.3699	0.22022
851.54158	0.22049
851.71324	0.22036
851.88489	0.2201
852.05651	0.21974
852.22812	0.21985
852.39971	0.22172
852.57129	0.21931
852.74285	0.22105
852.91438	0.21889
853.08591	0.21967
853.25741	0.21925
853.4289	0.22222
853.60037	0.22023
853.77182	0.22046
853.94325	0.22232
854.11467	0.2219
854.28607	0.22223
854.45745	0.22284
854.62881	0.22267
854.80016	0.22215
854.97149	0.22269
855.1428	0.22452
855.31409	0.22323
855.48537	0.22338
855.65662	0.22512
855.82786	0.2265
855.99909	0.22504
856.17029	0.22575
856.34148	0.22488
856.51265	0.22665
856.6838	0.22728
856.85494	0.2237
857.02606	0.22561
857.19716	0.2243
857.36824	0.22346
857.5393	0.22577
857.71035	0.22497
857.88138	0.22447
858.05239	0.22728
858.22338	0.23022
858.39436	0.22676
858.56532	0.22837
858.73626	0.22731
858.90718	0.22755
859.07809	0.22935
859.24898	0.22888
859.41985	0.22917
859.5907	0.22791
859.76154	0.22892
859.93236	0.22846
860.10316	0.22904
860.27394	0.23057
860.4447	0.22853
860.61545	0.23025
860.78618	0.23226
860.95689	0.22977
861.12759	0.23243
861.29826	0.23154
861.46892	0.22909
861.63956	0.23183
861.81019	0.23034
861.98079	0.2332
862.15138	0.23373
862.32195	0.2332
862.4925	0.23
862.66304	0.23001
862.83356	0.23215
863.00405	0.2334
863.17454	0.23254
863.345	0.23264
863.51545	0.2359
863.68588	0.23338
863.85629	0.23361
864.02668	0.23521
864.19706	0.2371
864.36742	0.23604
864.53776	0.23571
864.70808	0.23624
864.87838	0.23541
865.04867	0.23393
865.21894	0.2357
865.38919	0.2363
865.55943	0.23549
865.72964	0.23444
865.89984	0.23569
866.07002	0.23753
866.24018	0.23753
866.41033	0.23697
866.58046	0.23672
866.75057	0.23986
866.92066	0.23802
867.09073	0.24196
867.26079	0.23739
867.43083	0.23808
867.60085	0.23792
867.77085	0.23853
867.94084	0.2393
868.11081	0.23898
868.28076	0.23958
868.45069	0.23621
868.6206	0.24015
868.7905	0.24112
868.96038	0.23978
869.13024	0.2409
869.30008	0.24176
869.46991	0.24061
869.63972	0.24351
869.80951	0.2418
869.97928	0.24123
870.14903	0.24059
870.31877	0.24325
870.48849	0.24468
870.65819	0.24284
870.82787	0.23972
870.99754	0.24233
871.16719	0.24617
871.33682	0.24536
871.50643	0.24415
871.67602	0.24389
871.8456	0.24376
872.01516	0.24287
872.1847	0.24533
872.35422	0.24413
872.52373	0.24158
872.69321	0.24423
872.86268	0.24677
873.03213	0.24346
873.20157	0.24394
873.37098	0.24715
873.54038	0.24504
873.70976	0.24733
873.87912	0.2442
874.04847	0.24793
874.21779	0.24729
874.3871	0.2476
874.55639	0.24277
874.72567	0.24892
874.89492	0.246
875.06416	0.25063
875.23338	0.24926
875.40258	0.24866
875.57176	0.24747
875.74093	0.2488
875.91008	0.24784
876.07921	0.24994
876.24832	0.24711
876.41741	0.24923
876.58649	0.25179
876.75555	0.2485
876.92459	0.2488
877.09361	0.25311
877.26262	0.24708
877.4316	0.25236
877.60057	0.24935
877.76952	0.25086
877.93846	0.25149
878.10737	0.24741
878.27627	0.25378
878.44515	0.25437
878.61401	0.25114
878.78285	0.25032
878.95168	0.25174
879.12049	0.254
879.28928	0.24977
879.45805	0.24923
879.6268	0.25611
879.79554	0.25516
879.96426	0.25172
880.13296	0.25297
880.30164	0.25574
880.4703	0.25282
880.63895	0.25245
880.80758	0.25486
880.97619	0.25436
881.14478	0.25598
881.31335	0.25514
881.48191	0.25321
881.65045	0.25511
881.81897	0.2543
881.98747	0.25422
882.15596	0.25646
882.32442	0.25371
882.49287	0.25829
882.6613	0.25581
882.82972	0.25378
882.99811	0.25348
883.16649	0.25676
883.33485	0.25777
883.50319	0.25659
883.67151	0.25739
883.83981	0.25532
884.0081	0.25828
884.17637	0.25629
884.34462	0.25683
884.51285	0.25535
884.68107	0.25767
884.84926	0.25879
885.01744	0.25426
885.1856	0.25891
885.35375	0.26073
885.52187	0.25865
885.68998	0.25811
885.85807	0.25937
886.02614	0.26146
886.19419	0.26046
886.36222	0.25964
886.53024	0.25894
886.69824	0.25978
886.86622	0.25774
887.03418	0.26267
887.20212	0.25999
887.37005	0.26063
887.53796	0.25641
887.70585	0.25906
887.87372	0.2611
888.04157	0.26369
888.20941	0.26201
888.37723	0.26128
888.54503	0.26456
888.71281	0.26153
888.88057	0.26291
889.04832	0.26591
889.21605	0.26178
889.38376	0.26301
